Frequency[MHz];Amplitude RX1[mV] at pwm=120;SW-version 1.23, e-Callisto
 45.000;1369
 45.063;1660
 45.125;1674
 45.188;1887
 45.250;1806
 45.313;1962
 45.375;1574
 45.438;1643
 45.500;1479
 45.563;1477
 45.625;1457
 45.688;1457
 45.750;1484
 45.813;1447
 45.875;1452
 45.938;1477
 46.000;1450
 46.063;1481
 46.125;1491
 46.188;1469
 46.250;1491
 46.313;1484
 46.375;1467
 46.438;1479
 46.500;1459
 46.563;1459
 46.625;1484
 46.688;1455
 46.750;1455
 46.813;1481
 46.875;1435
 46.938;1437
 47.000;1462
 47.063;1420
 47.125;1464
 47.188;1452
 47.250;1447
 47.313;1462
 47.375;1435
 47.438;1425
 47.500;1447
 47.563;1425
 47.625;1430
 47.688;1474
 47.750;1440
 47.813;1450
 47.875;1533
 47.938;1750
 48.000;1813
 48.063;1892
 48.125;1828
 48.188;1809
 48.250;1750
 48.313;1569
 48.375;1501
 48.438;1452
 48.500;1450
 48.563;1462
 48.625;1430
 48.688;1445
 48.750;1469
 48.813;1430
 48.875;1447
 48.938;1464
 49.000;1430
 49.063;1469
 49.125;1442
 49.188;1459
 49.250;1472
 49.313;1450
 49.375;1462
 49.438;1481
 49.500;1462
 49.563;1455
 49.625;1467
 49.688;1450
 49.750;1457
 49.813;1462
 49.875;1450
 49.938;1477
 50.000;1455
 50.063;1455
 50.125;1457
 50.188;1445
 50.250;1459
 50.313;1459
 50.375;1452
 50.438;1472
 50.500;1481
 50.563;1455
 50.625;1472
 50.688;1445
 50.750;1447
 50.813;1452
 50.875;1467
 50.938;1462
 51.000;1491
 51.063;1486
 51.125;1474
 51.188;1484
 51.250;1474
 51.313;1489
 51.375;1477
 51.438;1486
 51.500;1499
 51.563;1489
 51.625;1499
 51.688;1516
 51.750;1506
 51.813;1513
 51.875;1503
 51.938;1525
 52.000;1530
 52.063;1535
 52.125;1538
 52.188;1540
 52.250;1542
 52.313;1557
 52.375;1550
 52.438;1562
 52.500;1589
 52.563;1616
 52.625;1606
 52.688;1601
 52.750;1604
 52.813;1594
 52.875;1596
 52.938;1596
 53.000;1608
 53.063;1645
 53.125;1662
 53.188;1655
 53.250;1638
 53.313;1633
 53.375;1623
 53.438;1643
 53.500;1638
 53.563;1638
 53.625;1679
 53.688;1679
 53.750;1672
 53.813;1677
 53.875;1665
 53.938;1652
 54.000;1665
 54.063;1662
 54.125;1677
 54.188;1696
 54.250;1665
 54.313;1674
 54.375;1672
 54.438;1643
 54.500;1650
 54.563;1652
 54.625;1657
 54.688;1669
 54.750;1660
 54.813;1667
 54.875;1672
 54.938;1657
 55.000;1630
 55.063;1638
 55.125;1635
 55.188;1657
 55.250;1662
 55.313;1647
 55.375;1669
 55.438;1650
 55.500;1618
 55.563;1630
 55.625;1623
 55.688;1623
 55.750;1647
 55.813;1638
 55.875;1640
 55.938;1630
 56.000;1599
 56.063;1604
 56.125;1586
 56.188;1564
 56.250;1599
 56.313;1606
 56.375;1579
 56.438;1579
 56.500;1572
 56.563;1547
 56.625;1567
 56.688;1535
 56.750;1560
 56.813;1572
 56.875;1579
 56.938;1564
 57.000;1550
 57.063;1525
 57.125;1508
 57.188;1523
 57.250;1518
 57.313;1533
 57.375;1564
 57.438;1550
 57.500;1545
 57.563;1520
 57.625;1486
 57.688;1501
 57.750;1491
 57.813;1520
 57.875;1555
 57.938;1552
 58.000;1545
 58.063;1545
 58.125;1503
 58.188;1484
 58.250;1489
 58.313;1481
 58.375;1525
 58.438;1518
 58.500;1523
 58.563;1503
 58.625;1494
 58.688;1496
 58.750;1479
 58.813;1464
 58.875;1499
 58.938;1481
 59.000;1472
 59.063;1481
 59.125;1499
 59.188;1484
 59.250;1472
 59.313;1462
 59.375;1501
 59.438;1520
 59.500;1535
 59.563;1550
 59.625;1540
 59.688;1525
 59.750;1518
 59.813;1496
 59.875;1569
 59.938;1835
 60.000;1894
 60.063;1943
 60.125;1914
 60.188;1875
 60.250;1818
 60.313;1660
 60.375;1540
 60.438;1484
 60.500;1508
 60.563;1545
 60.625;1562
 60.688;1491
 60.750;1523
 60.813;1496
 60.875;1442
 60.938;1474
 61.000;1481
 61.063;1455
 61.125;1494
 61.188;1474
 61.250;1459
 61.313;1499
 61.375;1472
 61.438;1491
 61.500;1501
 61.563;1481
 61.625;1518
 61.688;1520
 61.750;1506
 61.813;1516
 61.875;1491
 61.938;1472
 62.000;1494
 62.063;1523
 62.125;1533
 62.188;1557
 62.250;1542
 62.313;1530
 62.375;1523
 62.438;1503
 62.500;1503
 62.563;1520
 62.625;1550
 62.688;1547
 62.750;1562
 62.813;1560
 62.875;1552
 62.938;1542
 63.000;1542
 63.063;1530
 63.125;1560
 63.188;1584
 63.250;1599
 63.313;1582
 63.375;1564
 63.438;1599
 63.500;1616
 63.563;1628
 63.625;1621
 63.688;1630
 63.750;1601
 63.813;1606
 63.875;1628
 63.938;1628
 64.000;1611
 64.063;1606
 64.125;1621
 64.188;1613
 64.250;1633
 64.313;1645
 64.375;1650
 64.438;1628
 64.500;1640
 64.563;1608
 64.625;1604
 64.688;1611
 64.750;1633
 64.813;1628
 64.875;1625
 64.938;1618
 65.000;1616
 65.063;1604
 65.125;1574
 65.188;1584
 65.250;1569
 65.313;1591
 65.375;1599
 65.438;1584
 65.500;1564
 65.563;1579
 65.625;1540
 65.688;1552
 65.750;1552
 65.813;1538
 65.875;1542
 65.938;1550
 66.000;1547
 66.063;1569
 66.125;1542
 66.188;1562
 66.250;1582
 66.313;1611
 66.375;1660
 66.438;1677
 66.500;1633
 66.563;1633
 66.625;1596
 66.688;1582
 66.750;1589
 66.813;1582
 66.875;1591
 66.938;1611
 67.000;1606
 67.063;1625
 67.125;1621
 67.188;1635
 67.250;1611
 67.313;1643
 67.375;1608
 67.438;1635
 67.500;1657
 67.563;1640
 67.625;1647
 67.688;1657
 67.750;1657
 67.813;1677
 67.875;1657
 67.938;1672
 68.000;1701
 68.063;1674
 68.125;1696
 68.188;1721
 68.250;1679
 68.313;1728
 68.375;1738
 68.438;1726
 68.500;1765
 68.563;1733
 68.625;1750
 68.688;1791
 68.750;1791
 68.813;1809
 68.875;1833
 68.938;1809
 69.000;1840
 69.063;1860
 69.125;1833
 69.188;1865
 69.250;1892
 69.313;1857
 69.375;1887
 69.438;1875
 69.500;1877
 69.563;1904
 69.625;1899
 69.688;1904
 69.750;1926
 69.813;1906
 69.875;1928
 69.938;1972
 70.000;1928
 70.063;1926
 70.125;1955
 70.188;1923
 70.250;1928
 70.313;1933
 70.375;1914
 70.438;1914
 70.500;1940
 70.563;1921
 70.625;1940
 70.688;1923
 70.750;1909
 70.813;1953
 70.875;1931
 70.938;1921
 71.000;1938
 71.063;1933
 71.125;1909
 71.188;1923
 71.250;1926
 71.313;1928
 71.375;1931
 71.438;1928
 71.500;1938
 71.563;1936
 71.625;1916
 71.688;1945
 71.750;1945
 71.813;1943
 71.875;1982
 71.938;2092
 72.000;2194
 72.063;2229
 72.125;2258
 72.188;2204
 72.250;2202
 72.313;2104
 72.375;1992
 72.438;1975
 72.500;1928
 72.563;1923
 72.625;1928
 72.688;1899
 72.750;1892
 72.813;1918
 72.875;1896
 72.938;1892
 73.000;1923
 73.063;1909
 73.125;1911
 73.188;1904
 73.250;1896
 73.313;1901
 73.375;1894
 73.438;1872
 73.500;1884
 73.563;1882
 73.625;1870
 73.688;1904
 73.750;1887
 73.813;1879
 73.875;1909
 73.938;1879
 74.000;1870
 74.063;1879
 74.125;1862
 74.188;1884
 74.250;1887
 74.313;1879
 74.375;1901
 74.438;1887
 74.500;1879
 74.563;1892
 74.625;1889
 74.688;1882
 74.750;1896
 74.813;1894
 74.875;1889
 74.938;1892
 75.000;1892
 75.063;1909
 75.125;1916
 75.188;1906
 75.250;1914
 75.313;1928
 75.375;1933
 75.438;1953
 75.500;1916
 75.563;1928
 75.625;1958
 75.688;1960
 75.750;1948
 75.813;1945
 75.875;1943
 75.938;1979
 76.000;1972
 76.063;1975
 76.125;2006
 76.188;2004
 76.250;2031
 76.313;2028
 76.375;2009
 76.438;1975
 76.500;1989
 76.563;1994
 76.625;1979
 76.688;1977
 76.750;1975
 76.813;2028
 76.875;2011
 76.938;1994
 77.000;1999
 77.063;1999
 77.125;1979
 77.188;1967
 77.250;1953
 77.313;1938
 77.375;1950
 77.438;1948
 77.500;1962
 77.563;1992
 77.625;1950
 77.688;1977
 77.750;1962
 77.813;1943
 77.875;1943
 77.938;1948
 78.000;1967
 78.063;1975
 78.125;1970
 78.188;1989
 78.250;2004
 78.313;1962
 78.375;1972
 78.438;1953
 78.500;1958
 78.563;1962
 78.625;1977
 78.688;1965
 78.750;1977
 78.813;1982
 78.875;1970
 78.938;1967
 79.000;1972
 79.063;1987
 79.125;1992
 79.188;1979
 79.250;1979
 79.313;1982
 79.375;1987
 79.438;1992
 79.500;1975
 79.563;1965
 79.625;1962
 79.688;1972
 79.750;1965
 79.813;1958
 79.875;1953
 79.938;1975
 80.000;1970
 80.063;1972
 80.125;1975
 80.188;1953
 80.250;1943
 80.313;1936
 80.375;1933
 80.438;1921
 80.500;1928
 80.563;1921
 80.625;1948
 80.688;1926
 80.750;1921
 80.813;1933
 80.875;1921
 80.938;1921
 81.000;1933
 81.063;1943
 81.125;1979
 81.188;1962
 81.250;1940
 81.313;1936
 81.375;1953
 81.438;1948
 81.500;1948
 81.563;1943
 81.625;1955
 81.688;1958
 81.750;1945
 81.813;1940
 81.875;1945
 81.938;1940
 82.000;1953
 82.063;1960
 82.125;1950
 82.188;1948
 82.250;1960
 82.313;1962
 82.375;1953
 82.438;1955
 82.500;1926
 82.563;1943
 82.625;1931
 82.688;1921
 82.750;1931
 82.813;1940
 82.875;1914
 82.938;1943
 83.000;1926
 83.063;1887
 83.125;1901
 83.188;1884
 83.250;1879
 83.313;1894
 83.375;1879
 83.438;1892
 83.500;1901
 83.563;1860
 83.625;1862
 83.688;1884
 83.750;1828
 83.813;1848
 83.875;1831
 83.938;1850
 84.000;1923
 84.063;1914
 84.125;1870
 84.188;1770
 84.250;1721
 84.313;1657
 84.375;1540
 84.438;1667
 84.500;1582
 84.563;1518
 84.625;1501
 84.688;1518
 84.750;1516
 84.813;1513
 84.875;1542
 84.938;1679
 85.000;1843
 85.063;1770
 85.125;1923
 85.188;1789
 85.250;1577
 85.313;1564
 85.375;1572
 85.438;1538
 85.500;1535
 85.563;1696
 85.625;1704
 85.688;1601
 85.750;1630
 85.813;1684
 85.875;1542
 85.938;1550
 86.000;1530
 86.063;1557
 86.125;1564
 86.188;1560
 86.250;1584
 86.313;1594
 86.375;1635
 86.438;1635
 86.500;1682
 86.563;1689
 86.625;1623
 86.688;1608
 86.750;1726
 86.813;1804
 86.875;1528
 86.938;1562
 87.000;1640
 87.063;1748
 87.125;1555
 87.188;1528
 87.250;1662
 87.313;1882
 87.375;1989
 87.438;2062
 87.500;2072
 87.563;2023
 87.625;1975
 87.688;1892
 87.750;1757
 87.813;1752
 87.875;1635
 87.938;1647
 88.000;1684
 88.063;1667
 88.125;1647
 88.188;1811
 88.250;1989
 88.313;2250
 88.375;2341
 88.438;2358
 88.500;2365
 88.563;2360
 88.625;2355
 88.688;2255
 88.750;2082
 88.813;1823
 88.875;1750
 88.938;1801
 89.000;1782
 89.063;1704
 89.125;1730
 89.188;1696
 89.250;1635
 89.313;1833
 89.375;1992
 89.438;2036
 89.500;2043
 89.563;1972
 89.625;1948
 89.688;1777
 89.750;1669
 89.813;1730
 89.875;1677
 89.938;1689
 90.000;1713
 90.063;1674
 90.125;1665
 90.188;1591
 90.250;1643
 90.313;1704
 90.375;1638
 90.438;1628
 90.500;1633
 90.563;1669
 90.625;1655
 90.688;1650
 90.750;1799
 90.813;1767
 90.875;1813
 90.938;1818
 91.000;1799
 91.063;1853
 91.125;1943
 91.188;1818
 91.250;1704
 91.313;1713
 91.375;1711
 91.438;1801
 91.500;1823
 91.563;1804
 91.625;1779
 91.688;1743
 91.750;1794
 91.813;1987
 91.875;2104
 91.938;2189
 92.000;2163
 92.063;2121
 92.125;2104
 92.188;1967
 92.250;1899
 92.313;1945
 92.375;1933
 92.438;1943
 92.500;1960
 92.563;1943
 92.625;1984
 92.688;1962
 92.750;1875
 92.813;1904
 92.875;1914
 92.938;1989
 93.000;1943
 93.063;1958
 93.125;1896
 93.188;1862
 93.250;1840
 93.313;1804
 93.375;1789
 93.438;1796
 93.500;1774
 93.563;1816
 93.625;1801
 93.688;1779
 93.750;1738
 93.813;1726
 93.875;1684
 93.938;1699
 94.000;1733
 94.063;1845
 94.125;1938
 94.188;1909
 94.250;1877
 94.313;1877
 94.375;1784
 94.438;1774
 94.500;1750
 94.563;1711
 94.625;1760
 94.688;1740
 94.750;1718
 94.813;1718
 94.875;1914
 94.938;2172
 95.000;2214
 95.063;2231
 95.125;2224
 95.188;2219
 95.250;2131
 95.313;2067
 95.375;2194
 95.438;2202
 95.500;2238
 95.563;2214
 95.625;2138
 95.688;2009
 95.750;1911
 95.813;1945
 95.875;1940
 95.938;1955
 96.000;2062
 96.063;2145
 96.125;2260
 96.188;2263
 96.250;2214
 96.313;2194
 96.375;2055
 96.438;1904
 96.500;1875
 96.563;1843
 96.625;1853
 96.688;1828
 96.750;1784
 96.813;1796
 96.875;1762
 96.938;1774
 97.000;1791
 97.063;1777
 97.125;1772
 97.188;1811
 97.250;1811
 97.313;1799
 97.375;1777
 97.438;1804
 97.500;1813
 97.563;1833
 97.625;1828
 97.688;1833
 97.750;1843
 97.813;1835
 97.875;1823
 97.938;1828
 98.000;1826
 98.063;1809
 98.125;1823
 98.188;1833
 98.250;1823
 98.313;1862
 98.375;1848
 98.438;1848
 98.500;1843
 98.563;1826
 98.625;1833
 98.688;1809
 98.750;1901
 98.813;1948
 98.875;1950
 98.938;1933
 99.000;1916
 99.063;1904
 99.125;1936
 99.188;1962
 99.250;2006
 99.313;2006
 99.375;1943
 99.438;1955
 99.500;1909
 99.563;1865
 99.625;1862
 99.688;1875
 99.750;1967
 99.813;2246
 99.875;2321
 99.938;2346
100.000;2355
100.063;2351
100.125;2343
100.188;2255
100.250;2053
100.313;1872
100.375;1794
100.438;1818
100.500;1801
100.563;1796
100.625;1806
100.688;1811
100.750;1784
100.813;1791
100.875;1799
100.938;1796
101.000;1811
101.063;1784
101.125;1818
101.188;1804
101.250;1782
101.313;1813
101.375;1899
101.438;2145
101.500;2207
101.563;2243
101.625;2204
101.688;2187
101.750;2109
101.813;2111
101.875;2167
101.938;1982
102.000;2048
102.063;2004
102.125;1765
102.188;1750
102.250;1791
102.313;1804
102.375;1835
102.438;1801
102.500;1789
102.563;1777
102.625;1765
102.688;1748
102.750;1748
102.813;1716
102.875;1716
102.938;1738
103.000;1701
103.063;1774
103.125;1972
103.188;2092
103.250;2126
103.313;2104
103.375;2058
103.438;2011
103.500;1862
103.563;1770
103.625;1779
103.688;1711
103.750;1833
103.813;1894
103.875;1875
103.938;1916
104.000;1931
104.063;1857
104.125;1813
104.188;1806
104.250;1738
104.313;1726
104.375;1711
104.438;1801
104.500;1848
104.563;1813
104.625;1718
104.688;1740
104.750;1674
104.813;1689
104.875;1750
104.938;1650
105.000;1691
105.063;1726
105.125;1699
105.188;1711
105.250;1745
105.313;1772
105.375;1853
105.438;1911
105.500;2099
105.563;2250
105.625;2280
105.688;2312
105.750;2280
105.813;2260
105.875;2099
105.938;1938
106.000;1811
106.063;1745
106.125;1760
106.188;1726
106.250;1716
106.313;1684
106.375;1657
106.438;1850
106.500;1882
106.563;1943
106.625;1911
106.688;1870
106.750;1770
106.813;1760
106.875;1699
106.938;1738
107.000;1726
107.063;1677
107.125;1708
107.188;1706
107.250;1689
107.313;1845
107.375;1938
107.438;1882
107.500;1972
107.563;1960
107.625;1884
107.688;2070
107.750;2304
107.813;2338
107.875;2355
107.938;2348
108.000;2346
108.063;2290
108.125;2094
108.188;1911
108.250;1804
108.313;1738
108.375;1730
108.438;1755
108.500;1721
108.563;1689
108.625;1672
108.688;1689
108.750;1779
108.813;1706
108.875;1667
108.938;1694
109.000;1650
109.063;1704
109.125;1682
109.188;1623
109.250;1655
109.313;1655
109.375;1613
109.438;1696
109.500;1789
109.563;1870
109.625;1877
109.688;1850
109.750;1848
109.813;1787
109.875;1748
109.938;1728
110.000;1875
110.063;1857
110.125;1791
110.188;1669
110.250;1589
110.313;1540
110.375;1643
110.438;1584
110.500;1811
110.563;1845
110.625;1540
110.688;1577
110.750;1579
110.813;1486
110.875;1528
110.938;1535
111.000;1530
111.063;1621
111.125;1503
111.188;1525
111.250;1591
111.313;1513
111.375;1577
111.438;1650
111.500;1518
111.563;1579
111.625;1633
111.688;1687
111.750;1706
111.813;1701
111.875;1770
111.938;1779
112.000;1750
112.063;1696
112.125;1730
112.188;1682
112.250;1721
112.313;1745
112.375;1674
112.438;1721
112.500;1738
112.563;1689
112.625;1708
112.688;1723
112.750;1706
112.813;1745
112.875;1716
112.938;1718
113.000;1718
113.063;1694
113.125;1718
113.188;1723
113.250;1677
113.313;1723
113.375;1728
113.438;1682
113.500;1721
113.563;1735
113.625;1694
113.688;1713
113.750;1713
113.813;1718
113.875;1733
113.938;1708
114.000;1723
114.063;1728
114.125;1701
114.188;1721
114.250;1733
114.313;1696
114.375;1723
114.438;1740
114.500;1767
114.563;1804
114.625;1826
114.688;1777
114.750;1784
114.813;1743
114.875;1723
114.938;1735
115.000;1696
115.063;1743
115.125;1748
115.188;1687
115.250;1721
115.313;1718
115.375;1687
115.438;1694
115.500;1721
115.563;1691
115.625;1726
115.688;1691
115.750;1708
115.813;1704
115.875;1679
115.938;1699
116.000;1713
116.063;1672
116.125;1699
116.188;1706
116.250;1660
116.313;1687
116.375;1689
116.438;1660
116.500;1674
116.563;1669
116.625;1674
116.688;1696
116.750;1660
116.813;1687
116.875;1684
116.938;1645
117.000;1674
117.063;1694
117.125;1647
117.188;1660
117.250;1672
117.313;1657
117.375;1679
117.438;1669
117.500;1662
117.563;1647
117.625;1633
117.688;1652
117.750;1645
117.813;1630
117.875;1662
117.938;1657
118.000;1623
118.063;1647
118.125;1655
118.188;1613
118.250;1611
118.313;1638
118.375;1643
118.438;1647
118.500;1625
118.563;1625
118.625;1613
118.688;1608
118.750;1621
118.813;1618
118.875;1604
118.938;1628
119.000;1621
119.063;1591
119.125;1623
119.188;1608
119.250;1606
119.313;1606
119.375;1608
119.438;1618
119.500;1611
119.563;1574
119.625;1611
119.688;1584
119.750;1579
119.813;1623
119.875;1667
119.938;1950
120.000;2053
120.063;2119
120.125;2080
120.188;2053
120.250;2014
120.313;1833
120.375;1694
120.438;1618
120.500;1623
120.563;1599
120.625;1579
120.688;1584
120.750;1567
120.813;1560
120.875;1567
120.938;1560
121.000;1562
121.063;1572
121.125;1560
121.188;1572
121.250;1550
121.313;1555
121.375;1579
121.438;1567
121.500;1542
121.563;1589
121.625;1589
121.688;1567
121.750;1604
121.813;1586
121.875;1545
121.938;1572
122.000;1562
122.063;1606
122.125;1613
122.188;1606
122.250;1638
122.313;1601
122.375;1557
122.438;1594
122.500;1560
122.563;1562
122.625;1616
122.688;1625
122.750;1594
122.813;1621
122.875;1601
122.938;1582
123.000;1586
123.063;1564
123.125;1596
123.188;1582
123.250;1569
123.313;1589
123.375;1569
123.438;1547
123.500;1606
123.563;1552
123.625;1552
123.688;1591
123.750;1579
123.813;1567
123.875;1586
123.938;1599
124.000;1582
124.063;1606
124.125;1591
124.188;1606
124.250;1613
124.313;1584
124.375;1630
124.438;1611
124.500;1579
124.563;1613
124.625;1577
124.688;1567
124.750;1623
124.813;1628
124.875;1601
124.938;1616
125.000;1608
125.063;1589
125.125;1608
125.188;1564
125.250;1604
125.313;1621
125.375;1601
125.438;1650
125.500;1638
125.563;1582
125.625;1616
125.688;1567
125.750;1562
125.813;1591
125.875;1564
125.938;1586
126.000;1589
126.063;1589
126.125;1623
126.188;1613
126.250;1584
126.313;1630
126.375;1616
126.438;1582
126.500;1623
126.563;1584
126.625;1564
126.688;1599
126.750;1618
126.813;1621
126.875;1608
126.938;1591
127.000;1628
127.063;1596
127.125;1591
127.188;1625
127.250;1591
127.313;1572
127.375;1625
127.438;1621
127.500;1582
127.563;1616
127.625;1608
127.688;1594
127.750;1611
127.813;1594
127.875;1606
127.938;1621
128.000;1601
128.063;1655
128.125;1604
128.188;1591
128.250;1630
128.313;1596
128.375;1586
128.438;1623
128.500;1611
128.563;1601
128.625;1621
128.688;1616
128.750;1621
128.813;1618
128.875;1611
128.938;1628
129.000;1625
129.063;1630
129.125;1667
129.188;1638
129.250;1630
129.313;1630
129.375;1613
129.438;1613
129.500;1625
129.563;1638
129.625;1633
129.688;1638
129.750;1643
129.813;1633
129.875;1618
129.938;1601
130.000;1611
130.063;1621
130.125;1599
130.188;1638
130.250;1611
130.313;1599
130.375;1611
130.438;1601
130.500;1601
130.563;1604
130.625;1621
130.688;1618
130.750;1611
130.813;1613
130.875;1630
130.938;1618
131.000;1618
131.063;1647
131.125;1635
131.188;1633
131.250;1638
131.313;1647
131.375;1630
131.438;1635
131.500;1640
131.563;1633
131.625;1633
131.688;1635
131.750;1669
131.813;1660
131.875;1652
131.938;1684
132.000;1806
132.063;1872
132.125;1945
132.188;1926
132.250;1867
132.313;1855
132.375;1726
132.438;1665
132.500;1652
132.563;1630
132.625;1662
132.688;1647
132.750;1643
132.813;1665
132.875;1650
132.938;1640
133.000;1672
133.063;1652
133.125;1630
133.188;1650
133.250;1660
133.313;1645
133.375;1650
133.438;1647
133.500;1657
133.563;1633
133.625;1628
133.688;1655
133.750;1635
133.813;1643
133.875;1677
133.938;1643
134.000;1640
134.063;1669
134.125;1650
134.188;1638
134.250;1660
134.313;1645
134.375;1657
134.438;1662
134.500;1662
134.563;1682
134.625;1679
134.688;1672
134.750;1704
134.813;1687
134.875;1655
134.938;1689
135.000;1669
135.063;1667
135.125;1687
135.188;1679
135.250;1672
135.313;1674
135.375;1677
135.438;1699
135.500;1687
135.563;1677
135.625;1689
135.688;1687
135.750;1669
135.813;1691
135.875;1679
135.938;1669
136.000;1696
136.063;1687
136.125;1687
136.188;1689
136.250;1665
136.313;1699
136.375;1672
136.438;1674
136.500;1701
136.563;1687
136.625;1694
136.688;1723
136.750;1699
136.813;1704
136.875;1728
136.938;1716
137.000;1699
137.063;1726
137.125;1723
137.188;1728
137.250;1706
137.313;1696
137.375;1735
137.438;1730
137.500;1708
137.563;1745
137.625;1718
137.688;1721
137.750;1765
137.813;1716
137.875;1696
137.938;1730
138.000;1735
138.063;1752
138.125;1718
138.188;1713
138.250;1752
138.313;1738
138.375;1701
138.438;1757
138.500;1730
138.563;1701
138.625;1782
138.688;1723
138.750;1706
138.813;1765
138.875;1733
138.938;1752
139.000;1721
139.063;1696
139.125;1760
139.188;1748
139.250;1723
139.313;1770
139.375;1730
139.438;1716
139.500;1782
139.563;1711
139.625;1687
139.688;1748
139.750;1718
139.813;1721
139.875;1726
139.938;1696
140.000;1738
140.063;1735
140.125;1701
140.188;1745
140.250;1730
140.313;1694
140.375;1743
140.438;1699
140.500;1672
140.563;1713
140.625;1679
140.688;1689
140.750;1716
140.813;1701
140.875;1721
140.938;1706
141.000;1682
141.063;1716
141.125;1674
141.188;1689
141.250;1708
141.313;1699
141.375;1679
141.438;1718
141.500;1723
141.563;1672
141.625;1706
141.688;1708
141.750;1691
141.813;1699
141.875;1687
141.938;1689
142.000;1691
142.063;1689
142.125;1708
142.188;1691
142.250;1679
142.313;1704
142.375;1694
142.438;1674
142.500;1701
142.563;1706
142.625;1684
142.688;1718
142.750;1718
142.813;1689
142.875;1699
142.938;1691
143.000;1726
143.063;1706
143.125;1682
143.188;1740
143.250;1716
143.313;1721
143.375;1743
143.438;1713
143.500;1706
143.563;1726
143.625;1704
143.688;1706
143.750;1708
143.813;1708
143.875;1730
143.938;1708
144.000;1713
144.063;1760
144.125;1770
144.188;1735
144.250;1772
144.313;1733
144.375;1696
144.438;1718
144.500;1682
144.563;1701
144.625;1711
144.688;1689
144.750;1740
144.813;1708
144.875;1679
144.938;1743
145.000;1691
145.063;1694
145.125;1748
145.188;1711
145.250;1704
145.313;1716
145.375;1694
145.438;1701
145.500;1701
145.563;1679
145.625;1723
145.688;1682
145.750;1674
145.813;1718
145.875;1672
145.938;1662
146.000;1718
146.063;1674
146.125;1679
146.188;1694
146.250;1652
146.313;1677
146.375;1669
146.438;1657
146.500;1684
146.563;1657
146.625;1655
146.688;1682
146.750;1640
146.813;1650
146.875;1687
146.938;1647
147.000;1650
147.063;1667
147.125;1645
147.188;1660
147.250;1730
147.313;2006
147.375;2145
147.438;2216
147.500;2165
147.563;2084
147.625;1967
147.688;1967
147.750;1743
147.813;1638
147.875;1628
147.938;1635
148.000;1613
148.063;1623
148.125;1633
148.188;1630
148.250;1638
148.313;1623
148.375;1623
148.438;1640
148.500;1633
148.563;1647
148.625;1645
148.688;1630
148.750;1621
148.813;1650
148.875;1608
148.938;1599
149.000;1616
149.063;1596
149.125;1618
149.188;1594
149.250;1582
149.313;1638
149.375;1586
149.438;1582
149.500;1650
149.563;1596
149.625;1582
149.688;1660
149.750;1586
149.813;1584
149.875;1613
149.938;1594
150.000;1608
150.063;1608
150.125;1589
150.188;1645
150.250;1594
150.313;1586
150.375;1640
150.438;1582
150.500;1579
150.563;1662
150.625;1591
150.688;1589
150.750;1630
150.813;1594
150.875;1604
150.938;1621
151.000;1591
151.063;1628
151.125;1611
151.188;1579
151.250;1630
151.313;1601
151.375;1591
151.438;1660
151.500;1621
151.563;1604
151.625;1613
151.688;1579
151.750;1582
151.813;1604
151.875;1569
151.938;1594
152.000;1584
152.063;1562
152.125;1596
152.188;1579
152.250;1577
152.313;1608
152.375;1582
152.438;1569
152.500;1608
152.563;1572
152.625;1569
152.688;1596
152.750;1564
152.813;1582
152.875;1586
152.938;1574
153.000;1608
153.063;1572
153.125;1569
153.188;1616
153.250;1579
153.313;1562
153.375;1633
153.438;1572
153.500;1599
153.563;1669
153.625;1694
153.688;1679
153.750;1660
153.813;1643
153.875;1635
153.938;1582
154.000;1579
154.063;1638
154.125;1572
154.188;1586
154.250;1650
154.313;1584
154.375;1584
154.438;1657
154.500;1572
154.563;1589
154.625;1635
154.688;1589
154.750;1647
154.813;1601
154.875;1604
154.938;1669
155.000;1596
155.063;1601
155.125;1674
155.188;1599
155.250;1594
155.313;1682
155.375;1591
155.438;1608
155.500;1665
155.563;1647
155.625;1687
155.688;1652
155.750;1638
155.813;1691
155.875;1623
155.938;1628
156.000;1718
156.063;1782
156.125;1884
156.188;1767
156.250;1787
156.313;1791
156.375;1679
156.438;1616
156.500;1652
156.563;1633
156.625;1606
156.688;1677
156.750;1613
156.813;1589
156.875;1684
156.938;1591
157.000;1594
157.063;1701
157.125;1589
157.188;1604
157.250;1669
157.313;1599
157.375;1623
157.438;1635
157.500;1596
157.563;1669
157.625;1633
157.688;1601
157.750;1672
157.813;1579
157.875;1579
157.938;1682
158.000;1579
158.063;1579
158.125;1667
158.188;1574
158.250;1591
158.313;1608
158.375;1572
158.438;1640
158.500;1604
158.563;1564
158.625;1643
158.688;1579
158.750;1557
158.813;1667
158.875;1560
158.938;1560
159.000;1645
159.063;1567
159.125;1560
159.188;1596
159.250;1550
159.313;1599
159.375;1584
159.438;1560
159.500;1608
159.563;1557
159.625;1547
159.688;1630
159.750;1547
159.813;1545
159.875;1625
159.938;1545
160.000;1542
160.063;1589
160.125;1542
160.188;1572
160.250;1569
160.313;1540
160.375;1584
160.438;1555
160.500;1542
160.563;1601
160.625;1545
160.688;1533
160.750;1611
160.813;1538
160.875;1530
160.938;1594
161.000;1542
161.063;1564
161.125;1608
161.188;1577
161.250;1586
161.313;1569
161.375;1523
161.438;1586
161.500;1530
161.563;1520
161.625;1582
161.688;1538
161.750;1533
161.813;1589
161.875;1552
161.938;1550
162.000;1562
162.063;1550
162.125;1540
162.188;1552
162.250;1538
162.313;1560
162.375;1547
162.438;1518
162.500;1574
162.563;1520
162.625;1511
162.688;1560
162.750;1503
162.813;1516
162.875;1542
162.938;1516
163.000;1518
163.063;1518
163.125;1508
163.188;1540
163.250;1520
163.313;1516
163.375;1538
163.438;1503
163.500;1503
163.563;1540
163.625;1503
163.688;1506
163.750;1503
163.813;1501
163.875;1501
163.938;1520
164.000;1506
164.063;1520
164.125;1511
164.188;1491
164.250;1535
164.313;1520
164.375;1501
164.438;1552
164.500;1503
164.563;1511
164.625;1560
164.688;1508
164.750;1496
164.813;1518
164.875;1494
164.938;1520
165.000;1520
165.063;1508
165.125;1562
165.188;1508
165.250;1503
165.313;1582
165.375;1511
165.438;1506
165.500;1586
165.563;1496
165.625;1491
165.688;1564
165.750;1506
165.813;1538
165.875;1540
165.938;1523
166.000;1584
166.063;1550
166.125;1516
166.188;1584
166.250;1525
166.313;1516
166.375;1606
166.438;1530
166.500;1516
166.563;1572
166.625;1520
166.688;1523
166.750;1555
166.813;1506
166.875;1560
166.938;1525
167.000;1499
167.063;1564
167.125;1508
167.188;1491
167.250;1586
167.313;1506
167.375;1491
167.438;1582
167.500;1499
167.563;1516
167.625;1555
167.688;1501
167.750;1550
167.813;1530
167.875;1499
167.938;1589
168.000;1567
168.063;1611
168.125;1728
168.188;1638
168.250;1625
168.313;1711
168.375;1538
168.438;1511
168.500;1577
168.563;1503
168.625;1547
168.688;1533
168.750;1494
168.813;1572
168.875;1518
168.938;1486
169.000;1606
169.063;1506
169.125;1484
169.188;1613
169.250;1508
169.313;1501
169.375;1572
169.438;1503
169.500;1542
169.563;1540
169.625;1503
169.688;1584
169.750;1506
169.813;1491
169.875;1611
169.938;1508
170.000;1503
170.063;1630
170.125;1523
170.188;1494
170.250;1596
170.313;1503
170.375;1528
170.438;1557
170.500;1499
170.563;1594
170.625;1533
170.688;1503
170.750;1625
170.813;1530
170.875;1518
170.938;1638
171.000;1530
171.063;1523
171.125;1333
171.188;1318
171.250;1335
171.313;1333
171.375;1540
171.438;1364
171.500;1420
171.563;1396
171.625;1372
171.688;1318
171.750;1320
171.813;1398
171.875;1376
171.938;1618
172.000;1628
172.063;1586
172.125;1616
172.188;1625
172.250;1574
172.313;1618
172.375;1601
172.438;1762
172.500;2023
172.563;2067
172.625;2111
172.688;2043
172.750;2031
172.813;1918
172.875;1735
172.938;1579
173.000;1579
173.063;1604
173.125;1584
173.188;1630
173.250;1601
173.313;1584
173.375;1633
173.438;1577
173.500;1540
173.563;1623
173.625;1552
173.688;1550
173.750;1594
173.813;1535
173.875;1572
173.938;1562
174.000;1545
174.063;1596
174.125;1547
174.188;1535
174.250;1601
174.313;1525
174.375;1513
174.438;1604
174.500;1523
174.563;1523
174.625;1579
174.688;1518
174.750;1564
174.813;1555
174.875;1513
174.938;1579
175.000;1511
175.063;1501
175.125;1589
175.188;1513
175.250;1508
175.313;1596
175.375;1518
175.438;1508
175.500;1538
175.563;1481
175.625;1540
175.688;1513
175.750;1481
175.813;1550
175.875;1479
175.938;1472
176.000;1557
176.063;1469
176.125;1459
176.188;1542
176.250;1464
176.313;1457
176.375;1499
176.438;1459
176.500;1508
176.563;1479
176.625;1481
176.688;1523
176.750;1452
176.813;1440
176.875;1518
176.938;1442
177.000;1440
177.063;1489
177.125;1440
177.188;1437
177.250;1452
177.313;1425
177.375;1467
177.438;1433
177.500;1423
177.563;1511
177.625;1491
177.688;1552
177.750;1604
177.813;1625
177.875;1623
177.938;1657
178.000;1660
178.063;1647
178.125;1643
178.188;1621
178.250;1650
178.313;1647
178.375;1650
178.438;1647
178.500;1623
178.563;1630
178.625;1645
178.688;1635
178.750;1625
178.813;1555
178.875;1562
178.938;1530
179.000;1511
179.063;1496
179.125;1501
179.188;1469
179.250;1445
179.313;1474
179.375;1430
179.438;1452
179.500;1486
179.563;1459
179.625;1452
179.688;1469
179.750;1445
179.813;1479
179.875;1457
179.938;1423
180.000;1533
180.063;1528
180.125;1550
180.188;1608
180.250;1530
180.313;1533
180.375;1555
180.438;1501
180.500;1496
180.563;1499
180.625;1477
180.688;1523
180.750;1469
180.813;1430
180.875;1506
180.938;1386
181.000;1359
181.063;1491
181.125;1357
181.188;1352
181.250;1437
181.313;1354
181.375;1374
181.438;1403
181.500;1342
181.563;1435
181.625;1364
181.688;1335
181.750;1479
181.813;1347
181.875;1342
181.938;1489
182.000;1342
182.063;1340
182.125;1430
182.188;1345
182.250;1389
182.313;1391
182.375;1340
182.438;1437
182.500;1367
182.563;1323
182.625;1479
182.688;1342
182.750;1335
182.813;1479
182.875;1337
182.938;1340
183.000;1406
183.063;1328
183.125;1391
183.188;1372
183.250;1315
183.313;1442
183.375;1337
183.438;1311
183.500;1464
183.563;1335
183.625;1328
183.688;1452
183.750;1323
183.813;1333
183.875;1391
183.938;1330
184.000;1396
184.063;1352
184.125;1318
184.188;1442
184.250;1340
184.313;1308
184.375;1455
184.438;1342
184.500;1318
184.563;1428
184.625;1328
184.688;1330
184.750;1381
184.813;1340
184.875;1398
184.938;1350
185.000;1328
185.063;1435
185.125;1337
185.188;1323
185.250;1462
185.313;1333
185.375;1330
185.438;1428
185.500;1330
185.563;1345
185.625;1381
185.688;1323
185.750;1411
185.813;1335
185.875;1318
185.938;1455
186.000;1335
186.063;1325
186.125;1464
186.188;1325
186.250;1330
186.313;1428
186.375;1323
186.438;1376
186.500;1374
186.563;1333
186.625;1442
186.688;1354
186.750;1325
186.813;1462
186.875;1340
186.938;1320
187.000;1486
187.063;1333
187.125;1347
187.188;1411
187.250;1333
187.313;1406
187.375;1374
187.438;1335
187.500;1452
187.563;1362
187.625;1330
187.688;1486
187.750;1340
187.813;1342
187.875;1459
187.938;1342
188.000;1364
188.063;1533
188.125;1713
188.188;1843
188.250;1904
188.313;1921
188.375;1933
188.438;1906
188.500;1896
188.563;1911
188.625;1918
188.688;1931
188.750;1950
188.813;1945
188.875;1948
188.938;1923
189.000;1921
189.063;1938
189.125;1943
189.188;1982
189.250;1904
189.313;2033
189.375;2060
189.438;2041
189.500;2043
189.563;2041
189.625;2036
189.688;2038
189.750;2004
189.813;1943
189.875;1870
189.938;1748
190.000;1547
190.063;1433
190.125;1511
190.188;1413
190.250;1401
190.313;1518
190.375;1420
190.438;1425
190.500;1494
190.563;1435
190.625;1457
190.688;1467
190.750;1401
190.813;1506
190.875;1433
190.938;1403
191.000;1501
191.063;1406
191.125;1389
191.188;1516
191.250;1381
191.313;1389
191.375;1455
191.438;1374
191.500;1413
191.563;1408
191.625;1364
191.688;1484
191.750;1386
191.813;1376
191.875;1511
191.938;1406
192.000;1386
192.063;1533
192.125;1450
192.188;1474
192.250;1508
192.313;1447
192.375;1486
192.438;1445
192.500;1420
192.563;1516
192.625;1450
192.688;1445
192.750;1538
192.813;1474
192.875;1459
192.938;1533
193.000;1474
193.063;1494
193.125;1528
193.188;1621
193.250;1889
193.313;1992
193.375;2080
193.438;2099
193.500;2124
193.563;2124
193.625;2116
193.688;2138
193.750;2148
193.813;2128
193.875;2150
193.938;2158
194.000;2150
194.063;2148
194.125;1823
194.188;2126
194.250;2143
194.313;2126
194.375;2131
194.438;2124
194.500;2097
194.563;2094
194.625;2082
194.688;2060
194.750;2077
194.813;2062
194.875;2019
194.938;1984
195.000;1896
195.063;1804
195.125;1611
195.188;1540
195.250;1474
195.313;1440
195.375;1506
195.438;1452
195.500;1430
195.563;1440
195.625;1418
195.688;1447
195.750;1425
195.813;1401
195.875;1457
195.938;1394
196.000;1376
196.063;1457
196.125;1389
196.188;1372
196.250;1445
196.313;1386
196.375;1381
196.438;1408
196.500;1379
196.563;1416
196.625;1413
196.688;1401
196.750;1457
196.813;1391
196.875;1391
196.938;1447
197.000;1403
197.063;1386
197.125;1440
197.188;1396
197.250;1403
197.313;1433
197.375;1435
197.438;1481
197.500;1472
197.563;1464
197.625;1511
197.688;1491
197.750;1479
197.813;1528
197.875;1496
197.938;1486
198.000;1511
198.063;1481
198.125;1481
198.188;1489
198.250;1474
198.313;1511
198.375;1484
198.438;1464
198.500;1506
198.563;1459
198.625;1447
198.688;1503
198.750;1450
198.813;1440
198.875;1447
198.938;1398
199.000;1411
199.063;1406
199.125;1394
199.188;1459
199.250;1408
199.313;1396
199.375;1467
199.438;1396
199.500;1398
199.563;1464
199.625;1398
199.688;1403
199.750;1423
199.813;1403
199.875;1433
199.938;1406
200.000;1386
200.063;1447
200.125;1384
200.188;1372
200.250;1457
200.313;1384
200.375;1398
200.438;1450
200.500;1403
200.563;1408
200.625;1398
200.688;1411
200.750;1442
200.813;1416
200.875;1398
200.938;1455
201.000;1406
201.063;1396
201.125;1462
201.188;1411
201.250;1401
201.313;1447
201.375;1411
201.438;1398
201.500;1423
201.563;1381
201.625;1430
201.688;1401
201.750;1384
201.813;1437
201.875;1381
201.938;1369
202.000;1425
202.063;1367
202.125;1350
202.188;1381
202.250;1340
202.313;1328
202.375;1369
202.438;1345
202.500;1391
202.563;1357
202.625;1350
202.688;1416
202.750;1354
202.813;1345
202.875;1403
202.938;1340
203.000;1345
203.063;1376
203.125;1335
203.188;1352
203.250;1357
203.313;1340
203.375;1396
203.438;1357
203.500;1330
203.563;1406
203.625;1333
203.688;1333
203.750;1403
203.813;1350
203.875;1342
203.938;1408
204.000;1423
204.063;1552
204.125;1589
204.188;1650
204.250;1594
204.313;1572
204.375;1525
204.438;1455
204.500;1386
204.563;1374
204.625;1411
204.688;1359
204.750;1359
204.813;1376
204.875;1347
204.938;1354
205.000;1337
205.063;1357
205.125;1396
205.188;1354
205.250;1350
205.313;1389
205.375;1337
205.438;1335
205.500;1367
205.563;1323
205.625;1328
205.688;1337
205.750;1323
205.813;1330
205.875;1330
205.938;1313
206.000;1342
206.063;1318
206.125;1308
206.188;1350
206.250;1323
206.313;1315
206.375;1340
206.438;1313
206.500;1311
206.563;1328
206.625;1306
206.688;1328
206.750;1318
206.813;1313
206.875;1362
206.938;1315
207.000;1298
207.063;1357
207.125;1303
207.188;1313
207.250;1357
207.313;1367
207.375;1420
207.438;1479
207.500;1520
207.563;1552
207.625;1477
207.688;1506
207.750;1508
207.813;1472
207.875;1474
207.938;1530
208.000;1530
208.063;1530
208.125;1523
208.188;1499
208.250;1467
208.313;1462
208.375;1430
208.438;1442
208.500;1430
208.563;1428
208.625;1452
208.688;1420
208.750;1386
208.813;1418
208.875;1369
208.938;1350
209.000;1374
209.063;1320
209.125;1323
209.188;1330
209.250;1306
209.313;1357
209.375;1320
209.438;1308
209.500;1381
209.563;1301
209.625;1296
209.688;1384
209.750;1301
209.813;1296
209.875;1352
209.938;1291
210.000;1318
210.063;1320
210.125;1301
210.188;1352
210.250;1318
210.313;1298
210.375;1374
210.438;1306
210.500;1303
210.563;1362
210.625;1303
210.688;1301
210.750;1340
210.813;1303
210.875;1308
210.938;1315
211.000;1301
211.063;1350
211.125;1311
211.188;1296
211.250;1367
211.313;1296
211.375;1293
211.438;1364
211.500;1296
211.563;1298
211.625;1335
211.688;1291
211.750;1315
211.813;1311
211.875;1293
211.938;1345
212.000;1293
212.063;1284
212.125;1354
212.188;1301
212.250;1301
212.313;1357
212.375;1296
212.438;1301
212.500;1318
212.563;1293
212.625;1315
212.688;1308
212.750;1296
212.813;1340
212.875;1296
212.938;1293
213.000;1357
213.063;1306
213.125;1296
213.188;1342
213.250;1289
213.313;1296
213.375;1318
213.438;1291
213.500;1315
213.563;1303
213.625;1293
213.688;1333
213.750;1298
213.813;1293
213.875;1337
213.938;1298
214.000;1291
214.063;1325
214.125;1286
214.188;1293
214.250;1313
214.313;1296
214.375;1311
214.438;1303
214.500;1286
214.563;1337
214.625;1303
214.688;1298
214.750;1335
214.813;1296
214.875;1298
214.938;1330
215.000;1303
215.063;1306
215.125;1308
215.188;1298
215.250;1328
215.313;1311
215.375;1301
215.438;1340
215.500;1306
215.563;1291
215.625;1350
215.688;1296
215.750;1311
215.813;1328
215.875;1298
215.938;1306
216.000;1325
216.063;1328
216.125;1357
216.188;1384
216.250;1362
216.313;1367
216.375;1340
216.438;1323
216.500;1350
216.563;1301
216.625;1301
216.688;1337
216.750;1301
216.813;1301
216.875;1311
216.938;1296
217.000;1340
217.063;1311
217.125;1301
217.188;1342
217.250;1301
217.313;1293
217.375;1340
217.438;1291
217.500;1296
217.563;1318
217.625;1303
217.688;1311
217.750;1308
217.813;1303
217.875;1340
217.938;1306
218.000;1298
218.063;1345
218.125;1301
218.188;1311
218.250;1335
218.313;1291
218.375;1298
218.438;1318
218.500;1303
218.563;1313
218.625;1306
218.688;1296
218.750;1335
218.813;1298
218.875;1301
218.938;1340
219.000;1291
219.063;1291
219.125;1328
219.188;1293
219.250;1306
219.313;1308
219.375;1303
219.438;1325
219.500;1298
219.563;1296
219.625;1328
219.688;1303
219.750;1298
219.813;1335
219.875;1301
219.938;1296
220.000;1323
220.063;1296
220.125;1301
220.188;1311
220.250;1303
220.313;1330
220.375;1296
220.438;1301
220.500;1320
220.563;1308
220.625;1291
220.688;1328
220.750;1306
220.813;1296
220.875;1320
220.938;1298
221.000;1308
221.063;1298
221.125;1303
221.188;1323
221.250;1311
221.313;1306
221.375;1328
221.438;1308
221.500;1301
221.563;1333
221.625;1298
221.688;1311
221.750;1323
221.813;1306
221.875;1293
221.938;1308
222.000;1301
222.063;1323
222.125;1306
222.188;1298
222.250;1337
222.313;1303
222.375;1306
222.438;1333
222.500;1298
222.563;1308
222.625;1318
222.688;1308
222.750;1303
222.813;1311
222.875;1306
222.938;1325
223.000;1308
223.063;1298
223.125;1323
223.188;1311
223.250;1303
223.313;1328
223.375;1315
223.438;1311
223.500;1333
223.563;1320
223.625;1320
223.688;1320
223.750;1311
223.813;1311
223.875;1313
223.938;1330
224.000;1333
224.063;1318
224.125;1318
224.188;1337
224.250;1313
224.313;1313
224.375;1335
224.438;1318
224.500;1315
224.563;1325
224.625;1308
224.688;1323
224.750;1315
224.813;1308
224.875;1325
224.938;1315
225.000;1315
225.063;1342
225.125;1325
225.188;1306
225.250;1337
225.313;1333
225.375;1315
225.438;1340
225.500;1313
225.563;1337
225.625;1320
225.688;1320
225.750;1352
225.813;1325
225.875;1325
225.938;1364
226.000;1335
226.063;1340
226.125;1362
226.188;1335
226.250;1342
226.313;1357
226.375;1350
226.438;1408
226.500;1623
226.563;1833
226.625;1997
226.688;2058
226.750;2084
226.813;2109
226.875;2102
226.938;2097
227.000;2080
227.063;2058
227.125;2048
227.188;2055
227.250;2055
227.313;2075
227.375;2060
227.438;2048
227.500;2023
227.563;2009
227.625;2021
227.688;2048
227.750;2058
227.813;2058
227.875;2065
227.938;2058
228.000;2053
228.063;2041
228.125;2028
228.188;1843
228.250;1906
228.313;1867
228.375;1708
228.438;1516
228.500;1394
228.563;1408
228.625;1367
228.688;1364
228.750;1381
228.813;1357
228.875;1352
228.938;1372
229.000;1354
229.063;1374
229.125;1364
229.188;1342
229.250;1379
229.313;1354
229.375;1347
229.438;1381
229.500;1362
229.563;1347
229.625;1381
229.688;1357
229.750;1352
229.813;1372
229.875;1354
229.938;1369
230.000;1354
230.063;1364
230.125;1391
230.188;1362
230.250;1350
230.313;1381
230.375;1354
230.438;1362
230.500;1403
230.563;1389
230.625;1408
230.688;1445
230.750;1435
230.813;1452
230.875;1435
230.938;1430
231.000;1442
231.063;1416
231.125;1423
231.188;1445
231.250;1437
231.313;1416
231.375;1435
231.438;1411
231.500;1413
231.563;1403
231.625;1423
231.688;1435
231.750;1442
231.813;1428
231.875;1445
231.938;1435
232.000;1423
232.063;1445
232.125;1413
232.188;1398
232.250;1413
232.313;1381
232.375;1386
232.438;1398
232.500;1376
232.563;1403
232.625;1401
232.688;1394
232.750;1408
232.813;1396
232.875;1389
232.938;1423
233.000;1386
233.063;1396
233.125;1413
233.188;1391
233.250;1389
233.313;1401
233.375;1384
233.438;1403
233.500;1394
233.563;1384
233.625;1413
233.688;1386
233.750;1386
233.813;1413
233.875;1384
233.938;1396
234.000;1398
234.063;1391
234.125;1394
234.188;1401
234.250;1396
234.313;1411
234.375;1396
234.438;1398
234.500;1423
234.563;1396
234.625;1391
234.688;1416
234.750;1391
234.813;1403
234.875;1408
234.938;1386
235.000;1394
235.063;1401
235.125;1394
235.188;1406
235.250;1408
235.313;1398
235.375;1425
235.438;1396
235.500;1394
235.563;1420
235.625;1398
235.688;1403
235.750;1428
235.813;1403
235.875;1403
235.938;1413
236.000;1398
236.063;1418
236.125;1408
236.188;1406
236.250;1433
236.313;1411
236.375;1411
236.438;1420
236.500;1408
236.563;1411
236.625;1430
236.688;1413
236.750;1416
236.813;1428
236.875;1413
236.938;1433
237.000;1411
237.063;1406
237.125;1428
237.188;1416
237.250;1408
237.313;1430
237.375;1423
237.438;1413
237.500;1440
237.563;1423
237.625;1433
237.688;1428
237.750;1413
237.813;1437
237.875;1437
237.938;1420
238.000;1435
238.063;1420
238.125;1435
238.188;1445
238.250;1423
238.313;1425
238.375;1435
238.438;1423
238.500;1425
238.563;1450
238.625;1430
238.688;1433
238.750;1428
238.813;1435
238.875;1452
238.938;1425
239.000;1440
239.063;1440
239.125;1433
239.188;1442
239.250;1440
239.313;1435
239.375;1437
239.438;1440
239.500;1437
239.563;1455
239.625;1433
239.688;1440
239.750;1462
239.813;1442
239.875;1457
239.938;1511
240.000;1591
240.063;1667
240.125;1718
240.188;1767
240.250;1743
240.313;1696
240.375;1652
240.438;1525
240.500;1469
240.563;1445
240.625;1452
240.688;1450
240.750;1440
240.813;1450
240.875;1440
240.938;1435
241.000;1442
241.063;1442
241.125;1445
241.188;1445
241.250;1442
241.313;1440
241.375;1440
241.438;1445
241.500;1445
241.563;1447
241.625;1435
241.688;1435
241.750;1440
241.813;1445
241.875;1430
241.938;1437
242.000;1435
242.063;1440
242.125;1435
242.188;1437
242.250;1437
242.313;1433
242.375;1442
242.438;1442
242.500;1437
242.563;1435
242.625;1430
242.688;1442
242.750;1440
242.813;1433
242.875;1440
242.938;1433
243.000;1442
243.063;1430
243.125;1433
243.188;1423
243.250;1425
243.313;1428
243.375;1430
243.438;1423
243.500;1423
243.563;1440
243.625;1420
243.688;1433
243.750;1425
243.813;1423
243.875;1433
243.938;1423
244.000;1423
244.063;1433
244.125;1423
244.188;1437
244.250;1423
244.313;1411
244.375;1442
244.438;1433
244.500;1416
244.563;1435
244.625;1435
244.688;1416
244.750;1425
244.813;1425
244.875;1433
244.938;1433
245.000;1425
245.063;1418
245.125;1416
245.188;1406
245.250;1408
245.313;1408
245.375;1389
245.438;1408
245.500;1418
245.563;1403
245.625;1406
245.688;1408
245.750;1394
245.813;1401
245.875;1401
245.938;1408
246.000;1394
246.063;1391
246.125;1396
246.188;1398
246.250;1376
246.313;1389
246.375;1396
246.438;1386
246.500;1406
246.563;1403
246.625;1401
246.688;1406
246.750;1396
246.813;1396
246.875;1403
246.938;1384
247.000;1398
247.063;1403
247.125;1401
247.188;1401
247.250;1403
247.313;1389
247.375;1403
247.438;1408
247.500;1401
247.563;1413
247.625;1413
247.688;1408
247.750;1401
247.813;1386
247.875;1381
247.938;1391
248.000;1369
248.063;1386
248.125;1391
248.188;1384
248.250;1384
248.313;1386
248.375;1374
248.438;1389
248.500;1376
248.563;1376
248.625;1381
248.688;1384
248.750;1386
248.813;1376
248.875;1374
248.938;1374
249.000;1379
249.063;1376
249.125;1384
249.188;1384
249.250;1379
249.313;1379
249.375;1379
249.438;1381
249.500;1381
249.563;1374
249.625;1374
249.688;1374
249.750;1381
249.813;1384
249.875;1379
249.938;1369
250.000;1369
250.063;1369
250.125;1367
250.188;1374
250.250;1376
250.313;1369
250.375;1369
250.438;1362
250.500;1367
250.563;1374
250.625;1359
250.688;1367
250.750;1364
250.813;1362
250.875;1369
250.938;1357
251.000;1369
251.063;1357
251.125;1357
251.188;1359
251.250;1379
251.313;1359
251.375;1364
251.438;1364
251.500;1352
251.563;1347
251.625;1357
251.688;1357
251.750;1364
251.813;1367
251.875;1362
251.938;1381
252.000;1396
252.063;1506
252.125;1630
252.188;1696
252.250;1696
252.313;1643
252.375;1628
252.438;1484
252.500;1396
252.563;1367
252.625;1364
252.688;1345
252.750;1350
252.813;1347
252.875;1345
252.938;1340
253.000;1335
253.063;1342
253.125;1333
253.188;1330
253.250;1325
253.313;1333
253.375;1345
253.438;1333
253.500;1333
253.563;1333
253.625;1328
253.688;1333
253.750;1340
253.813;1330
253.875;1325
253.938;1325
254.000;1330
254.063;1318
254.125;1333
254.188;1323
254.250;1342
254.313;1342
254.375;1342
254.438;1350
254.500;1347
254.563;1345
254.625;1342
254.688;1328
254.750;1328
254.813;1335
254.875;1330
254.938;1333
255.000;1333
255.063;1318
255.125;1337
255.188;1342
255.250;1328
255.313;1337
255.375;1323
255.438;1323
255.500;1340
255.563;1328
255.625;1325
255.688;1337
255.750;1325
255.813;1340
255.875;1330
255.938;1328
256.000;1333
256.063;1330
256.125;1330
256.188;1337
256.250;1342
256.313;1340
256.375;1347
256.438;1328
256.500;1337
256.563;1347
256.625;1337
256.688;1342
256.750;1337
256.813;1337
256.875;1357
256.938;1328
257.000;1337
257.063;1362
257.125;1335
257.188;1337
257.250;1345
257.313;1330
257.375;1330
257.438;1335
257.500;1333
257.563;1340
257.625;1330
257.688;1328
257.750;1357
257.813;1340
257.875;1340
257.938;1350
258.000;1340
258.063;1347
258.125;1367
258.188;1337
258.250;1357
258.313;1359
258.375;1354
258.438;1362
258.500;1340
258.563;1330
258.625;1350
258.688;1345
258.750;1345
258.813;1374
258.875;1345
258.938;1347
259.000;1352
259.063;1354
259.125;1359
259.188;1345
259.250;1345
259.313;1369
259.375;1350
259.438;1357
259.500;1372
259.563;1335
259.625;1342
259.688;1372
259.750;1352
259.813;1347
259.875;1367
259.938;1350
260.000;1364
260.063;1364
260.125;1342
260.188;1362
260.250;1337
260.313;1354
260.375;1376
260.438;1350
260.500;1354
260.563;1372
260.625;1347
260.688;1350
260.750;1364
260.813;1354
260.875;1389
260.938;1364
261.000;1357
261.063;1376
261.125;1362
261.188;1357
261.250;1384
261.313;1354
261.375;1359
261.438;1389
261.500;1364
261.563;1359
261.625;1372
261.688;1364
261.750;1376
261.813;1364
261.875;1359
261.938;1396
262.000;1364
262.063;1357
262.125;1389
262.188;1347
262.250;1359
262.313;1376
262.375;1352
262.438;1369
262.500;1379
262.563;1367
262.625;1396
262.688;1369
262.750;1364
262.813;1401
262.875;1369
262.938;1354
263.000;1396
263.063;1372
263.125;1374
263.188;1391
263.250;1386
263.313;1384
263.375;1391
263.438;1367
263.500;1398
263.563;1374
263.625;1372
263.688;1411
263.750;1386
263.813;1384
263.875;1416
263.938;1401
264.000;1440
264.063;1599
264.125;1801
264.188;1850
264.250;1877
264.313;1818
264.375;1799
264.438;1674
264.500;1513
264.563;1433
264.625;1391
264.688;1384
264.750;1406
264.813;1364
264.875;1362
264.938;1374
265.000;1357
265.063;1386
265.125;1369
265.188;1367
265.250;1396
265.313;1372
265.375;1374
265.438;1413
265.500;1394
265.563;1364
265.625;1389
265.688;1364
265.750;1357
265.813;1384
265.875;1352
265.938;1381
266.000;1362
266.063;1347
266.125;1386
266.188;1359
266.250;1357
266.313;1396
266.375;1364
266.438;1359
266.500;1374
266.563;1352
266.625;1362
266.688;1364
266.750;1347
266.813;1376
266.875;1359
266.938;1345
267.000;1381
267.063;1350
267.125;1350
267.188;1372
267.250;1350
267.313;1362
267.375;1369
267.438;1362
267.500;1362
267.563;1354
267.625;1350
267.688;1357
267.750;1340
267.813;1347
267.875;1384
267.938;1352
268.000;1347
268.063;1357
268.125;1357
268.188;1357
268.250;1352
268.313;1345
268.375;1367
268.438;1379
268.500;1376
268.563;1398
268.625;1362
268.688;1374
268.750;1364
268.813;1347
268.875;1330
268.938;1347
269.000;1330
269.063;1337
269.125;1345
269.188;1328
269.250;1347
269.313;1330
269.375;1330
269.438;1354
269.500;1347
269.563;1335
269.625;1357
269.688;1340
269.750;1352
269.813;1357
269.875;1345
269.938;1347
270.000;1359
270.063;1359
270.125;1359
270.188;1350
270.250;1367
270.313;1420
270.375;1462
270.438;1445
270.500;1411
270.563;1398
270.625;1357
270.688;1352
270.750;1330
270.813;1330
270.875;1315
270.938;1315
271.000;1340
271.063;1311
271.125;1318
271.188;1320
271.250;1318
271.313;1315
271.375;1335
271.438;1325
271.500;1315
271.563;1320
271.625;1311
271.688;1325
271.750;1318
271.813;1311
271.875;1330
271.938;1313
272.000;1325
272.063;1323
272.125;1325
272.188;1328
272.250;1328
272.313;1320
272.375;1318
272.438;1328
272.500;1320
272.563;1330
272.625;1318
272.688;1325
272.750;1333
272.813;1313
272.875;1311
272.938;1325
273.000;1318
273.063;1313
273.125;1313
273.188;1313
273.250;1318
273.313;1323
273.375;1313
273.438;1337
273.500;1328
273.563;1325
273.625;1333
273.688;1323
273.750;1325
273.813;1328
273.875;1330
273.938;1325
274.000;1325
274.063;1325
274.125;1335
274.188;1330
274.250;1325
274.313;1323
274.375;1330
274.438;1320
274.500;1330
274.563;1328
274.625;1325
274.688;1335
274.750;1330
274.813;1323
274.875;1325
274.938;1328
275.000;1320
275.063;1323
275.125;1315
275.188;1318
275.250;1313
275.313;1325
275.375;1330
275.438;1323
275.500;1318
275.563;1330
275.625;1330
275.688;1325
275.750;1320
275.813;1330
275.875;1325
275.938;1333
276.000;1333
276.063;1345
276.125;1401
276.188;1430
276.250;1430
276.313;1403
276.375;1401
276.438;1389
276.500;1403
276.563;1396
276.625;1369
276.688;1364
276.750;1345
276.813;1328
276.875;1315
276.938;1323
277.000;1323
277.063;1325
277.125;1315
277.188;1320
277.250;1325
277.313;1313
277.375;1320
277.438;1323
277.500;1318
277.563;1323
277.625;1318
277.688;1318
277.750;1315
277.813;1318
277.875;1315
277.938;1318
278.000;1308
278.063;1313
278.125;1308
278.188;1323
278.250;1313
278.313;1315
278.375;1313
278.438;1306
278.500;1306
278.563;1320
278.625;1313
278.688;1311
278.750;1328
278.813;1311
278.875;1318
278.938;1323
279.000;1313
279.063;1315
279.125;1318
279.188;1306
279.250;1308
279.313;1318
279.375;1308
279.438;1306
279.500;1315
279.563;1308
279.625;1320
279.688;1318
279.750;1315
279.813;1311
279.875;1311
279.938;1306
280.000;1311
280.063;1318
280.125;1308
280.188;1308
280.250;1313
280.313;1318
280.375;1311
280.438;1315
280.500;1308
280.563;1315
280.625;1315
280.688;1301
280.750;1315
280.813;1318
280.875;1315
280.938;1318
281.000;1313
281.063;1325
281.125;1308
281.188;1311
281.250;1303
281.313;1308
281.375;1298
281.438;1303
281.500;1296
281.563;1313
281.625;1306
281.688;1303
281.750;1303
281.813;1303
281.875;1308
281.938;1303
282.000;1303
282.063;1308
282.125;1301
282.188;1313
282.250;1311
282.313;1306
282.375;1306
282.438;1306
282.500;1303
282.563;1347
282.625;1369
282.688;1406
282.750;1362
282.813;1362
282.875;1333
282.938;1308
283.000;1301
283.063;1301
283.125;1298
283.188;1306
283.250;1301
283.313;1308
283.375;1301
283.438;1306
283.500;1306
283.563;1298
283.625;1296
283.688;1306
283.750;1306
283.813;1303
283.875;1298
283.938;1301
284.000;1311
284.063;1303
284.125;1306
284.188;1296
284.250;1303
284.313;1301
284.375;1301
284.438;1308
284.500;1306
284.563;1306
284.625;1298
284.688;1308
284.750;1301
284.813;1293
284.875;1311
284.938;1296
285.000;1303
285.063;1298
285.125;1303
285.188;1306
285.250;1298
285.313;1296
285.375;1298
285.438;1291
285.500;1303
285.563;1303
285.625;1303
285.688;1301
285.750;1308
285.813;1303
285.875;1291
285.938;1303
286.000;1303
286.063;1301
286.125;1311
286.188;1306
286.250;1306
286.313;1301
286.375;1306
286.438;1291
286.500;1296
286.563;1308
286.625;1308
286.688;1306
286.750;1301
286.813;1301
286.875;1298
286.938;1306
287.000;1301
287.063;1298
287.125;1293
287.188;1306
287.250;1306
287.313;1301
287.375;1313
287.438;1306
287.500;1318
287.563;1311
287.625;1318
287.688;1323
287.750;1313
287.813;1311
287.875;1301
287.938;1308
288.000;1315
288.063;1333
288.125;1433
288.188;1481
288.250;1528
288.313;1462
288.375;1462
288.438;1386
288.500;1325
288.563;1311
288.625;1311
288.688;1328
288.750;1362
288.813;1394
288.875;1379
288.938;1359
289.000;1357
289.063;1313
289.125;1303
289.188;1308
289.250;1308
289.313;1313
289.375;1308
289.438;1308
289.500;1303
289.563;1313
289.625;1311
289.688;1306
289.750;1311
289.813;1306
289.875;1298
289.938;1298
290.000;1313
290.063;1289
290.125;1303
290.188;1301
290.250;1315
290.313;1323
290.375;1308
290.438;1308
290.500;1301
290.563;1315
290.625;1306
290.688;1320
290.750;1306
290.813;1303
290.875;1318
290.938;1301
291.000;1306
291.063;1306
291.125;1311
291.188;1313
291.250;1311
291.313;1301
291.375;1315
291.438;1306
291.500;1296
291.563;1311
291.625;1313
291.688;1318
291.750;1308
291.813;1311
291.875;1311
291.938;1323
292.000;1313
292.063;1313
292.125;1308
292.188;1311
292.250;1303
292.313;1308
292.375;1306
292.438;1306
292.500;1318
292.563;1318
292.625;1318
292.688;1311
292.750;1308
292.813;1303
292.875;1315
292.938;1311
293.000;1315
293.063;1320
293.125;1311
293.188;1323
293.250;1308
293.313;1313
293.375;1315
293.438;1315
293.500;1311
293.563;1315
293.625;1318
293.688;1301
293.750;1308
293.813;1311
293.875;1315
293.938;1308
294.000;1313
294.063;1308
294.125;1308
294.188;1293
294.250;1303
294.313;1298
294.375;1301
294.438;1301
294.500;1308
294.563;1308
294.625;1303
294.688;1303
294.750;1313
294.813;1306
294.875;1308
294.938;1325
295.000;1318
295.063;1323
295.125;1308
295.188;1315
295.250;1311
295.313;1315
295.375;1303
295.438;1315
295.500;1308
295.563;1298
295.625;1308
295.688;1296
295.750;1306
295.813;1303
295.875;1306
295.938;1298
296.000;1301
296.063;1298
296.125;1311
296.188;1306
296.250;1303
296.313;1293
296.375;1301
296.438;1301
296.500;1293
296.563;1289
296.625;1293
296.688;1296
296.750;1289
296.813;1296
296.875;1298
296.938;1315
297.000;1303
297.063;1298
297.125;1315
297.188;1308
297.250;1306
297.313;1296
297.375;1303
297.438;1296
297.500;1293
297.563;1301
297.625;1289
297.688;1289
297.750;1289
297.813;1296
297.875;1301
297.938;1306
298.000;1293
298.063;1284
298.125;1291
298.188;1289
298.250;1293
298.313;1291
298.375;1298
298.438;1289
298.500;1291
298.563;1303
298.625;1328
298.688;1318
298.750;1308
298.813;1313
298.875;1308
298.938;1296
299.000;1293
299.063;1298
299.125;1296
299.188;1303
299.250;1289
299.313;1291
299.375;1293
299.438;1311
299.500;1291
299.563;1296
299.625;1296
299.688;1289
299.750;1291
299.813;1301
299.875;1296
299.938;1296
300.000;1303
300.063;1306
300.125;1423
300.188;1464
300.250;1523
300.313;1472
300.375;1440
300.438;1384
300.500;1308
300.563;1286
300.625;1296
300.688;1291
300.750;1286
300.813;1289
300.875;1296
300.938;1289
301.000;1284
301.063;1281
301.125;1289
301.188;1281
301.250;1291
301.313;1274
301.375;1293
301.438;1279
301.500;1284
301.563;1291
301.625;1284
301.688;1289
301.750;1279
301.813;1296
301.875;1286
301.938;1291
302.000;1293
302.063;1284
302.125;1289
302.188;1296
302.250;1281
302.313;1293
302.375;1281
302.438;1291
302.500;1293
302.563;1284
302.625;1284
302.688;1293
302.750;1291
302.813;1296
302.875;1289
302.938;1286
303.000;1284
303.063;1281
303.125;1286
303.188;1284
303.250;1284
303.313;1289
303.375;1286
303.438;1286
303.500;1284
303.563;1289
303.625;1281
303.688;1284
303.750;1291
303.813;1284
303.875;1286
303.938;1289
304.000;1286
304.063;1296
304.125;1291
304.188;1284
304.250;1296
304.313;1289
304.375;1289
304.438;1281
304.500;1291
304.563;1284
304.625;1284
304.688;1281
304.750;1286
304.813;1289
304.875;1289
304.938;1284
305.000;1286
305.063;1291
305.125;1301
305.188;1286
305.250;1284
305.313;1286
305.375;1298
305.438;1296
305.500;1276
305.563;1284
305.625;1286
305.688;1286
305.750;1293
305.813;1279
305.875;1286
305.938;1293
306.000;1289
306.063;1284
306.125;1289
306.188;1291
306.250;1289
306.313;1293
306.375;1293
306.438;1293
306.500;1286
306.563;1286
306.625;1296
306.688;1286
306.750;1296
306.813;1286
306.875;1286
306.938;1284
307.000;1293
307.063;1296
307.125;1308
307.188;1325
307.250;1364
307.313;1340
307.375;1330
307.438;1313
307.500;1289
307.563;1286
307.625;1289
307.688;1286
307.750;1291
307.813;1296
307.875;1291
307.938;1291
308.000;1291
308.063;1284
308.125;1293
308.188;1298
308.250;1289
308.313;1289
308.375;1296
308.438;1291
308.500;1289
308.563;1289
308.625;1284
308.688;1289
308.750;1291
308.813;1291
308.875;1289
308.938;1296
309.000;1301
309.063;1289
309.125;1281
309.188;1296
309.250;1296
309.313;1291
309.375;1296
309.438;1289
309.500;1289
309.563;1289
309.625;1291
309.688;1298
309.750;1296
309.813;1303
309.875;1298
309.938;1291
310.000;1291
310.063;1286
310.125;1291
310.188;1296
310.250;1291
310.313;1289
310.375;1301
310.438;1281
310.500;1284
310.563;1291
310.625;1286
310.688;1301
310.750;1296
310.813;1284
310.875;1289
310.938;1293
311.000;1298
311.063;1284
311.125;1286
311.188;1301
311.250;1286
311.313;1296
311.375;1303
311.438;1291
311.500;1296
311.563;1284
311.625;1289
311.688;1293
311.750;1293
311.813;1286
311.875;1293
311.938;1296
312.000;1293
312.063;1306
312.125;1337
312.188;1357
312.250;1403
312.313;1374
312.375;1352
312.438;1347
312.500;1303
312.563;1296
312.625;1306
312.688;1291
312.750;1291
312.813;1286
312.875;1286
312.938;1301
313.000;1293
313.063;1298
313.125;1293
313.188;1281
313.250;1291
313.313;1298
313.375;1293
313.438;1308
313.500;1303
313.563;1293
313.625;1291
313.688;1293
313.750;1286
313.813;1303
313.875;1289
313.938;1289
314.000;1296
314.063;1293
314.125;1296
314.188;1293
314.250;1301
314.313;1289
314.375;1289
314.438;1286
314.500;1293
314.563;1286
314.625;1296
314.688;1308
314.750;1289
314.813;1296
314.875;1298
314.938;1296
315.000;1306
315.063;1286
315.125;1293
315.188;1298
315.250;1291
315.313;1296
315.375;1293
315.438;1298
315.500;1296
315.563;1293
315.625;1296
315.688;1291
315.750;1293
315.813;1291
315.875;1289
315.938;1296
316.000;1303
316.063;1296
316.125;1298
316.188;1306
316.250;1293
316.313;1298
316.375;1289
316.438;1293
316.500;1298
316.563;1289
316.625;1303
316.688;1303
316.750;1303
316.813;1293
316.875;1301
316.938;1303
317.000;1296
317.063;1293
317.125;1296
317.188;1293
317.250;1286
317.313;1298
317.375;1296
317.438;1298
317.500;1298
317.563;1291
317.625;1296
317.688;1298
317.750;1308
317.813;1298
317.875;1296
317.938;1298
318.000;1298
318.063;1303
318.125;1301
318.188;1301
318.250;1298
318.313;1296
318.375;1293
318.438;1293
318.500;1298
318.563;1301
318.625;1301
318.688;1298
318.750;1298
318.813;1298
318.875;1301
318.938;1301
319.000;1306
319.063;1303
319.125;1301
319.188;1303
319.250;1298
319.313;1306
319.375;1313
319.438;1328
319.500;1337
319.563;1340
319.625;1318
319.688;1323
319.750;1301
319.813;1303
319.875;1301
319.938;1306
320.000;1308
320.063;1306
320.125;1306
320.188;1311
320.250;1303
320.313;1298
320.375;1306
320.438;1311
320.500;1308
320.563;1311
320.625;1296
320.688;1311
320.750;1306
320.813;1311
320.875;1293
320.938;1308
321.000;1306
321.063;1311
321.125;1298
321.188;1306
321.250;1323
321.313;1306
321.375;1306
321.438;1308
321.500;1311
321.563;1311
321.625;1301
321.688;1303
321.750;1311
321.813;1296
321.875;1301
321.938;1308
322.000;1311
322.063;1306
322.125;1303
322.188;1313
322.250;1308
322.313;1308
322.375;1311
322.438;1308
322.500;1311
322.563;1298
322.625;1303
322.688;1306
322.750;1308
322.813;1303
322.875;1296
322.938;1301
323.000;1296
323.063;1306
323.125;1298
323.188;1311
323.250;1301
323.313;1303
323.375;1311
323.438;1301
323.500;1306
323.563;1306
323.625;1308
323.688;1303
323.750;1306
323.813;1311
323.875;1308
323.938;1320
324.000;1313
324.063;1323
324.125;1318
324.188;1313
324.250;1335
324.313;1333
324.375;1318
324.438;1311
324.500;1306
324.563;1311
324.625;1298
324.688;1286
324.750;1303
324.813;1303
324.875;1298
324.938;1301
325.000;1298
325.063;1308
325.125;1311
325.188;1291
325.250;1293
325.313;1289
325.375;1296
325.438;1289
325.500;1301
325.563;1325
325.625;1337
325.688;1362
325.750;1337
325.813;1335
325.875;1320
325.938;1291
326.000;1306
326.063;1293
326.125;1289
326.188;1298
326.250;1289
326.313;1293
326.375;1286
326.438;1289
326.500;1291
326.563;1291
326.625;1289
326.688;1289
326.750;1306
326.813;1293
326.875;1296
326.938;1301
327.000;1296
327.063;1298
327.125;1289
327.188;1298
327.250;1296
327.313;1296
327.375;1301
327.438;1296
327.500;1298
327.563;1293
327.625;1303
327.688;1289
327.750;1289
327.813;1289
327.875;1293
327.938;1289
328.000;1289
328.063;1296
328.125;1286
328.188;1296
328.250;1296
328.313;1281
328.375;1289
328.438;1289
328.500;1293
328.563;1279
328.625;1289
328.688;1291
328.750;1293
328.813;1289
328.875;1284
328.938;1291
329.000;1293
329.063;1289
329.125;1286
329.188;1284
329.250;1291
329.313;1296
329.375;1296
329.438;1296
329.500;1284
329.563;1296
329.625;1286
329.688;1286
329.750;1291
329.813;1301
329.875;1289
329.938;1291
330.000;1289
330.063;1296
330.125;1286
330.188;1284
330.250;1291
330.313;1289
330.375;1293
330.438;1298
330.500;1296
330.563;1291
330.625;1286
330.688;1293
330.750;1281
330.813;1289
330.875;1293
330.938;1289
331.000;1286
331.063;1289
331.125;1286
331.188;1284
331.250;1293
331.313;1291
331.375;1296
331.438;1289
331.500;1301
331.563;1296
331.625;1301
331.688;1315
331.750;1345
331.813;1384
331.875;1372
331.938;1350
332.000;1345
332.063;1308
332.125;1296
332.188;1293
332.250;1291
332.313;1298
332.375;1291
332.438;1293
332.500;1296
332.563;1296
332.625;1303
332.688;1291
332.750;1306
332.813;1291
332.875;1291
332.938;1296
333.000;1296
333.063;1296
333.125;1296
333.188;1296
333.250;1289
333.313;1298
333.375;1296
333.438;1286
333.500;1281
333.563;1296
333.625;1298
333.688;1291
333.750;1296
333.813;1289
333.875;1293
333.938;1296
334.000;1291
334.063;1298
334.125;1281
334.188;1303
334.250;1301
334.313;1298
334.375;1293
334.438;1298
334.500;1296
334.563;1298
334.625;1306
334.688;1291
334.750;1284
334.813;1296
334.875;1301
334.938;1303
335.000;1284
335.063;1298
335.125;1306
335.188;1298
335.250;1291
335.313;1291
335.375;1296
335.438;1286
335.500;1289
335.563;1296
335.625;1303
335.688;1296
335.750;1298
335.813;1286
335.875;1296
335.938;1301
336.000;1298
336.063;1303
336.125;1328
336.188;1362
336.250;1394
336.313;1374
336.375;1350
336.438;1359
336.500;1308
336.563;1308
336.625;1291
336.688;1296
336.750;1296
336.813;1296
336.875;1296
336.938;1293
337.000;1298
337.063;1296
337.125;1291
337.188;1306
337.250;1293
337.313;1303
337.375;1298
337.438;1291
337.500;1301
337.563;1296
337.625;1296
337.688;1303
337.750;1289
337.813;1301
337.875;1323
337.938;1340
338.000;1350
338.063;1333
338.125;1325
338.188;1308
338.250;1303
338.313;1293
338.375;1296
338.438;1296
338.500;1293
338.563;1311
338.625;1301
338.688;1303
338.750;1303
338.813;1293
338.875;1291
338.938;1293
339.000;1296
339.063;1291
339.125;1301
339.188;1308
339.250;1303
339.313;1301
339.375;1293
339.438;1291
339.500;1298
339.563;1308
339.625;1301
339.688;1296
339.750;1293
339.813;1301
339.875;1291
339.938;1303
340.000;1301
340.063;1293
340.125;1298
340.188;1298
340.250;1298
340.313;1298
340.375;1301
340.438;1298
340.500;1296
340.563;1303
340.625;1291
340.688;1306
340.750;1301
340.813;1301
340.875;1296
340.938;1303
341.000;1306
341.063;1306
341.125;1303
341.188;1303
341.250;1301
341.313;1301
341.375;1306
341.438;1298
341.500;1293
341.563;1303
341.625;1301
341.688;1308
341.750;1320
341.813;1318
341.875;1315
341.938;1311
342.000;1311
342.063;1313
342.125;1315
342.188;1308
342.250;1313
342.313;1303
342.375;1315
342.438;1315
342.500;1318
342.563;1311
342.625;1311
342.688;1306
342.750;1320
342.813;1328
342.875;1320
342.938;1320
343.000;1320
343.063;1320
343.125;1325
343.188;1320
343.250;1311
343.313;1313
343.375;1318
343.438;1313
343.500;1328
343.563;1337
343.625;1379
343.688;1425
343.750;1403
343.813;1376
343.875;1367
343.938;1328
344.000;1340
344.063;1362
344.125;1389
344.188;1352
344.250;1350
344.313;1330
344.375;1315
344.438;1315
344.500;1315
344.563;1330
344.625;1315
344.688;1315
344.750;1311
344.813;1323
344.875;1306
344.938;1313
345.000;1325
345.063;1313
345.125;1323
345.188;1313
345.250;1320
345.313;1320
345.375;1320
345.438;1328
345.500;1311
345.563;1323
345.625;1325
345.688;1315
345.750;1318
345.813;1313
345.875;1318
345.938;1318
346.000;1311
346.063;1315
346.125;1311
346.188;1315
346.250;1315
346.313;1325
346.375;1315
346.438;1313
346.500;1325
346.563;1335
346.625;1325
346.688;1323
346.750;1330
346.813;1340
346.875;1328
346.938;1333
347.000;1325
347.063;1325
347.125;1320
347.188;1328
347.250;1333
347.313;1328
347.375;1323
347.438;1311
347.500;1325
347.563;1323
347.625;1318
347.688;1323
347.750;1325
347.813;1325
347.875;1313
347.938;1318
348.000;1320
348.063;1325
348.125;1333
348.188;1345
348.250;1369
348.313;1354
348.375;1347
348.438;1352
348.500;1330
348.563;1335
348.625;1325
348.688;1325
348.750;1333
348.813;1315
348.875;1337
348.938;1330
349.000;1330
349.063;1318
349.125;1330
349.188;1325
349.250;1325
349.313;1333
349.375;1330
349.438;1328
349.500;1328
349.563;1337
349.625;1330
349.688;1323
349.750;1315
349.813;1328
349.875;1330
349.938;1335
350.000;1340
350.063;1340
350.125;1350
350.188;1372
350.250;1396
350.313;1401
350.375;1369
350.438;1367
350.500;1335
350.563;1333
350.625;1323
350.688;1323
350.750;1325
350.813;1315
350.875;1320
350.938;1323
351.000;1325
351.063;1315
351.125;1315
351.188;1320
351.250;1320
351.313;1313
351.375;1323
351.438;1318
351.500;1333
351.563;1318
351.625;1325
351.688;1325
351.750;1313
351.813;1315
351.875;1315
351.938;1315
352.000;1328
352.063;1342
352.125;1323
352.188;1306
352.250;1325
352.313;1323
352.375;1335
352.438;1320
352.500;1323
352.563;1328
352.625;1325
352.688;1320
352.750;1315
352.813;1318
352.875;1325
352.938;1323
353.000;1320
353.063;1315
353.125;1313
353.188;1323
353.250;1315
353.313;1325
353.375;1325
353.438;1330
353.500;1325
353.563;1315
353.625;1315
353.688;1328
353.750;1325
353.813;1325
353.875;1325
353.938;1337
354.000;1323
354.063;1330
354.125;1323
354.188;1337
354.250;1318
354.313;1318
354.375;1320
354.438;1330
354.500;1311
354.563;1333
354.625;1315
354.688;1323
354.750;1328
354.813;1325
354.875;1323
354.938;1325
355.000;1318
355.063;1337
355.125;1323
355.188;1325
355.250;1330
355.313;1308
355.375;1323
355.438;1320
355.500;1330
355.563;1325
355.625;1328
355.688;1311
355.750;1330
355.813;1333
355.875;1323
355.938;1325
356.000;1325
356.063;1330
356.125;1318
356.188;1323
356.250;1335
356.313;1391
356.375;1403
356.438;1425
356.500;1391
356.563;1379
356.625;1342
356.688;1325
356.750;1330
356.813;1335
356.875;1337
356.938;1335
357.000;1330
357.063;1335
357.125;1323
357.188;1325
357.250;1330
357.313;1325
357.375;1337
357.438;1315
357.500;1318
357.563;1325
357.625;1313
357.688;1323
357.750;1325
357.813;1313
357.875;1323
357.938;1323
358.000;1320
358.063;1330
358.125;1320
358.188;1320
358.250;1328
358.313;1315
358.375;1325
358.438;1320
358.500;1325
358.563;1323
358.625;1328
358.688;1318
358.750;1320
358.813;1323
358.875;1318
358.938;1320
359.000;1337
359.063;1320
359.125;1325
359.188;1325
359.250;1325
359.313;1330
359.375;1320
359.438;1330
359.500;1325
359.563;1335
359.625;1325
359.688;1325
359.750;1335
359.813;1335
359.875;1337
359.938;1359
360.000;1484
360.063;1506
360.125;1557
360.188;1462
360.250;1477
360.313;1442
360.375;1364
360.438;1362
360.500;1340
360.563;1333
360.625;1333
360.688;1328
360.750;1325
360.813;1328
360.875;1333
360.938;1320
361.000;1318
361.063;1330
361.125;1323
361.188;1330
361.250;1323
361.313;1333
361.375;1333
361.438;1328
361.500;1325
361.563;1333
361.625;1315
361.688;1333
361.750;1333
361.813;1330
361.875;1328
361.938;1318
362.000;1330
362.063;1337
362.125;1337
362.188;1333
362.250;1333
362.313;1335
362.375;1340
362.438;1369
362.500;1379
362.563;1416
362.625;1384
362.688;1374
362.750;1364
362.813;1340
362.875;1340
362.938;1345
363.000;1335
363.063;1330
363.125;1357
363.188;1342
363.250;1347
363.313;1337
363.375;1345
363.438;1337
363.500;1337
363.563;1342
363.625;1337
363.688;1330
363.750;1333
363.813;1328
363.875;1342
363.938;1345
364.000;1335
364.063;1335
364.125;1335
364.188;1337
364.250;1342
364.313;1345
364.375;1347
364.438;1345
364.500;1342
364.563;1347
364.625;1335
364.688;1335
364.750;1342
364.813;1342
364.875;1350
364.938;1362
365.000;1352
365.063;1357
365.125;1337
365.188;1340
365.250;1342
365.313;1347
365.375;1342
365.438;1342
365.500;1345
365.563;1345
365.625;1335
365.688;1330
365.750;1342
365.813;1347
365.875;1345
365.938;1347
366.000;1333
366.063;1340
366.125;1350
366.188;1345
366.250;1340
366.313;1340
366.375;1350
366.438;1333
366.500;1345
366.563;1337
366.625;1337
366.688;1337
366.750;1345
366.813;1333
366.875;1340
366.938;1342
367.000;1354
367.063;1350
367.125;1350
367.188;1342
367.250;1340
367.313;1342
367.375;1333
367.438;1350
367.500;1345
367.563;1345
367.625;1342
367.688;1342
367.750;1337
367.813;1335
367.875;1333
367.938;1345
368.000;1337
368.063;1345
368.125;1342
368.188;1342
368.250;1337
368.313;1337
368.375;1342
368.438;1325
368.500;1342
368.563;1347
368.625;1369
368.688;1413
368.750;1386
368.813;1381
368.875;1364
368.938;1345
369.000;1342
369.063;1345
369.125;1342
369.188;1342
369.250;1325
369.313;1345
369.375;1335
369.438;1342
369.500;1340
369.563;1337
369.625;1335
369.688;1335
369.750;1345
369.813;1342
369.875;1335
369.938;1333
370.000;1330
370.063;1350
370.125;1340
370.188;1350
370.250;1345
370.313;1337
370.375;1342
370.438;1335
370.500;1330
370.563;1325
370.625;1340
370.688;1333
370.750;1328
370.813;1328
370.875;1335
370.938;1342
371.000;1335
371.063;1335
371.125;1325
371.188;1328
371.250;1335
371.313;1340
371.375;1333
371.438;1335
371.500;1337
371.563;1335
371.625;1340
371.688;1330
371.750;1337
371.813;1335
371.875;1337
371.938;1345
372.000;1340
372.063;1333
372.125;1350
372.188;1406
372.250;1396
372.313;1472
372.375;1396
372.438;1362
372.500;1362
372.563;1337
372.625;1325
372.688;1342
372.750;1335
372.813;1323
372.875;1328
372.938;1328
373.000;1345
373.063;1337
373.125;1337
373.188;1325
373.250;1333
373.313;1325
373.375;1337
373.438;1328
373.500;1318
373.563;1335
373.625;1325
373.688;1328
373.750;1330
373.813;1315
373.875;1320
373.938;1330
374.000;1325
374.063;1333
374.125;1335
374.188;1328
374.250;1328
374.313;1323
374.375;1323
374.438;1342
374.500;1328
374.563;1325
374.625;1337
374.688;1330
374.750;1337
374.813;1350
374.875;1342
374.938;1345
375.000;1347
375.063;1347
375.125;1337
375.188;1330
375.250;1340
375.313;1323
375.375;1340
375.438;1335
375.500;1333
375.563;1330
375.625;1333
375.688;1340
375.750;1333
375.813;1359
375.875;1364
375.938;1379
376.000;1374
376.063;1369
376.125;1345
376.188;1340
376.250;1323
376.313;1330
376.375;1330
376.438;1323
376.500;1335
376.563;1337
376.625;1330
376.688;1335
376.750;1330
376.813;1318
376.875;1325
376.938;1328
377.000;1335
377.063;1328
377.125;1325
377.188;1325
377.250;1340
377.313;1325
377.375;1330
377.438;1328
377.500;1325
377.563;1323
377.625;1328
377.688;1328
377.750;1335
377.813;1330
377.875;1337
377.938;1323
378.000;1330
378.063;1330
378.125;1340
378.188;1320
378.250;1335
378.313;1328
378.375;1328
378.438;1325
378.500;1328
378.563;1335
378.625;1337
378.688;1328
378.750;1328
378.813;1330
378.875;1320
378.938;1325
379.000;1335
379.063;1333
379.125;1330
379.188;1333
379.250;1328
379.313;1323
379.375;1325
379.438;1325
379.500;1333
379.563;1323
379.625;1325
379.688;1325
379.750;1335
379.813;1330
379.875;1323
379.938;1328
380.000;1330
380.063;1325
380.125;1323
380.188;1318
380.250;1333
380.313;1325
380.375;1325
380.438;1325
380.500;1335
380.563;1330
380.625;1330
380.688;1335
380.750;1328
380.813;1337
380.875;1340
380.938;1352
381.000;1367
381.063;1354
381.125;1347
381.188;1342
381.250;1335
381.313;1340
381.375;1328
381.438;1323
381.500;1320
381.563;1330
381.625;1333
381.688;1335
381.750;1311
381.813;1333
381.875;1335
381.938;1333
382.000;1325
382.063;1325
382.125;1308
382.188;1318
382.250;1318
382.313;1330
382.375;1328
382.438;1323
382.500;1323
382.563;1337
382.625;1330
382.688;1335
382.750;1335
382.813;1335
382.875;1333
382.938;1325
383.000;1340
383.063;1330
383.125;1337
383.188;1330
383.250;1333
383.313;1345
383.375;1337
383.438;1333
383.500;1342
383.563;1350
383.625;1330
383.688;1337
383.750;1335
383.813;1337
383.875;1330
383.938;1335
384.000;1350
384.063;1359
384.125;1369
384.188;1447
384.250;1474
384.313;1499
384.375;1462
384.438;1437
384.500;1379
384.563;1347
384.625;1330
384.688;1330
384.750;1323
384.813;1325
384.875;1330
384.938;1323
385.000;1333
385.063;1330
385.125;1342
385.188;1328
385.250;1337
385.313;1335
385.375;1325
385.438;1328
385.500;1323
385.563;1333
385.625;1335
385.688;1330
385.750;1320
385.813;1325
385.875;1330
385.938;1313
386.000;1325
386.063;1335
386.125;1330
386.188;1325
386.250;1325
386.313;1333
386.375;1318
386.438;1328
386.500;1318
386.563;1323
386.625;1320
386.688;1323
386.750;1330
386.813;1333
386.875;1318
386.938;1337
387.000;1340
387.063;1352
387.125;1347
387.188;1335
387.250;1335
387.313;1335
387.375;1330
387.438;1325
387.500;1320
387.563;1323
387.625;1328
387.688;1328
387.750;1333
387.813;1318
387.875;1328
387.938;1315
388.000;1318
388.063;1323
388.125;1320
388.188;1318
388.250;1315
388.313;1318
388.375;1313
388.438;1313
388.500;1318
388.563;1328
388.625;1318
388.688;1308
388.750;1311
388.813;1323
388.875;1320
388.938;1308
389.000;1311
389.063;1303
389.125;1303
389.188;1303
389.250;1298
389.313;1306
389.375;1289
389.438;1293
389.500;1301
389.563;1281
389.625;1284
389.688;1308
389.750;1396
389.813;1450
389.875;1420
389.938;1313
390.000;1291
390.063;1296
390.125;1289
390.188;1293
390.250;1293
390.313;1286
390.375;1303
390.438;1293
390.500;1298
390.563;1311
390.625;1315
390.688;1301
390.750;1303
390.813;1308
390.875;1315
390.938;1362
391.000;1330
391.063;1425
391.125;1440
391.188;1369
391.250;1323
391.313;1323
391.375;1308
391.438;1303
391.500;1306
391.563;1296
391.625;1306
391.688;1311
391.750;1313
391.813;1328
391.875;1313
391.938;1328
392.000;1340
392.063;1337
392.125;1413
392.188;1464
392.250;1494
392.313;1374
392.375;1381
392.438;1501
392.500;1406
392.563;1342
392.625;1333
392.688;1357
392.750;1381
392.813;1425
392.875;1608
392.938;1894
393.000;2187
393.063;2211
393.125;2258
393.188;2307
393.250;2302
393.313;2290
393.375;2268
393.438;2094
393.500;1884
393.563;1591
393.625;1401
393.688;1354
393.750;1340
393.813;1340
393.875;1342
393.938;1352
394.000;1364
394.063;1337
394.125;1320
394.188;1313
394.250;1318
394.313;1306
394.375;1303
394.438;1311
394.500;1335
394.563;1325
394.625;1328
394.688;1323
394.750;1315
394.813;1318
394.875;1298
394.938;1298
395.000;1303
395.063;1291
395.125;1296
395.188;1303
395.250;1308
395.313;1296
395.375;1308
395.438;1311
395.500;1298
395.563;1293
395.625;1306
395.688;1296
395.750;1296
395.813;1337
395.875;1342
395.938;1303
396.000;1298
396.063;1303
396.125;1347
396.188;1467
396.250;1528
396.313;1567
396.375;1486
396.438;1513
396.500;1403
396.563;1330
396.625;1308
396.688;1308
396.750;1306
396.813;1301
396.875;1342
396.938;1442
397.000;1540
397.063;1628
397.125;1621
397.188;1647
397.250;1618
397.313;1533
397.375;1381
397.438;1328
397.500;1323
397.563;1330
397.625;1318
397.688;1333
397.750;1323
397.813;1323
397.875;1328
397.938;1320
398.000;1318
398.063;1320
398.125;1330
398.188;1320
398.250;1330
398.313;1315
398.375;1330
398.438;1328
398.500;1330
398.563;1333
398.625;1323
398.688;1333
398.750;1333
398.813;1328
398.875;1328
398.938;1325
399.000;1330
399.063;1325
399.125;1325
399.188;1333
399.250;1330
399.313;1337
399.375;1325
399.438;1352
399.500;1325
399.563;1330
399.625;1335
399.688;1330
399.750;1333
399.813;1330
399.875;1325
399.938;1330
400.000;1340
400.063;1335
400.125;1342
400.188;1342
400.250;1323
400.313;1330
400.375;1320
400.438;1337
400.500;1342
400.563;1325
400.625;1330
400.688;1333
400.750;1335
400.813;1330
400.875;1335
400.938;1335
401.000;1337
401.063;1345
401.125;1330
401.188;1335
401.250;1330
401.313;1345
401.375;1330
401.438;1340
401.500;1330
401.563;1337
401.625;1337
401.688;1337
401.750;1333
401.813;1337
401.875;1335
401.938;1342
402.000;1335
402.063;1333
402.125;1337
402.188;1342
402.250;1342
402.313;1330
402.375;1350
402.438;1335
402.500;1347
402.563;1352
402.625;1340
402.688;1352
402.750;1345
402.813;1337
402.875;1342
402.938;1340
403.000;1345
403.063;1347
403.125;1340
403.188;1352
403.250;1350
403.313;1352
403.375;1337
403.438;1342
403.500;1350
403.563;1350
403.625;1350
403.688;1347
403.750;1335
403.813;1345
403.875;1337
403.938;1354
404.000;1357
404.063;1357
404.125;1357
404.188;1352
404.250;1347
404.313;1359
404.375;1340
404.438;1357
404.500;1354
404.563;1359
404.625;1364
404.688;1352
404.750;1354
404.813;1359
404.875;1347
404.938;1352
405.000;1354
405.063;1352
405.125;1347
405.188;1359
405.250;1345
405.313;1350
405.375;1352
405.438;1354
405.500;1354
405.563;1372
405.625;1357
405.688;1359
405.750;1354
405.813;1340
405.875;1350
405.938;1337
406.000;1340
406.063;1345
406.125;1345
406.188;1345
406.250;1330
406.313;1342
406.375;1350
406.438;1342
406.500;1364
406.563;1359
406.625;1347
406.688;1357
406.750;1328
406.813;1345
406.875;1345
406.938;1345
407.000;1345
407.063;1350
407.125;1340
407.188;1340
407.250;1347
407.313;1345
407.375;1345
407.438;1345
407.500;1342
407.563;1345
407.625;1335
407.688;1337
407.750;1342
407.813;1347
407.875;1345
407.938;1350
408.000;1354
408.063;1374
408.125;1430
408.188;1645
408.250;1684
408.313;1752
408.375;1708
408.438;1689
408.500;1560
408.563;1435
408.625;1374
408.688;1350
408.750;1347
408.813;1359
408.875;1347
408.938;1347
409.000;1350
409.063;1359
409.125;1425
409.188;1452
409.250;1474
409.313;1437
409.375;1418
409.438;1374
409.500;1364
409.563;1354
409.625;1350
409.688;1364
409.750;1352
409.813;1372
409.875;1379
409.938;1367
410.000;1381
410.063;1381
410.125;1386
410.188;1389
410.250;1384
410.313;1394
410.375;1401
410.438;1386
410.500;1389
410.563;1384
410.625;1376
410.688;1384
410.750;1386
410.813;1396
410.875;1389
410.938;1401
411.000;1386
411.063;1389
411.125;1396
411.188;1391
411.250;1401
411.313;1398
411.375;1401
411.438;1396
411.500;1403
411.563;1406
411.625;1403
411.688;1413
411.750;1401
411.813;1408
411.875;1401
411.938;1401
412.000;1398
412.063;1394
412.125;1401
412.188;1401
412.250;1389
412.313;1396
412.375;1396
412.438;1391
412.500;1408
412.563;1391
412.625;1403
412.688;1403
412.750;1398
412.813;1401
412.875;1396
412.938;1401
413.000;1406
413.063;1398
413.125;1396
413.188;1389
413.250;1396
413.313;1386
413.375;1391
413.438;1386
413.500;1386
413.563;1394
413.625;1394
413.688;1391
413.750;1386
413.813;1398
413.875;1401
413.938;1379
414.000;1386
414.063;1379
414.125;1394
414.188;1384
414.250;1386
414.313;1384
414.375;1389
414.438;1394
414.500;1394
414.563;1396
414.625;1394
414.688;1396
414.750;1396
414.813;1391
414.875;1394
414.938;1381
415.000;1384
415.063;1389
415.125;1379
415.188;1369
415.250;1384
415.313;1389
415.375;1386
415.438;1389
415.500;1391
415.563;1389
415.625;1384
415.688;1384
415.750;1396
415.813;1384
415.875;1386
415.938;1381
416.000;1379
416.063;1372
416.125;1376
416.188;1386
416.250;1376
416.313;1376
416.375;1374
416.438;1381
416.500;1381
416.563;1379
416.625;1396
416.688;1384
416.750;1381
416.813;1386
416.875;1381
416.938;1374
417.000;1376
417.063;1374
417.125;1374
417.188;1369
417.250;1372
417.313;1379
417.375;1379
417.438;1372
417.500;1391
417.563;1359
417.625;1376
417.688;1381
417.750;1389
417.813;1376
417.875;1367
417.938;1389
418.000;1369
418.063;1372
418.125;1369
418.188;1364
418.250;1374
418.313;1359
418.375;1362
418.438;1357
418.500;1369
418.563;1362
418.625;1374
418.688;1364
418.750;1367
418.813;1354
418.875;1362
418.938;1354
419.000;1354
419.063;1369
419.125;1354
419.188;1350
419.250;1337
419.313;1359
419.375;1354
419.438;1359
419.500;1352
419.563;1359
419.625;1364
419.688;1352
419.750;1345
419.813;1347
419.875;1340
419.938;1352
420.000;1359
420.063;1367
420.125;1347
420.188;1416
420.250;1433
420.313;1474
420.375;1440
420.438;1413
420.500;1386
420.563;1342
420.625;1333
420.688;1325
420.750;1330
420.813;1313
420.875;1311
420.938;1318
421.000;1315
421.063;1311
421.125;1315
421.188;1303
421.250;1313
421.313;1301
421.375;1318
421.438;1306
421.500;1311
421.563;1303
421.625;1308
421.688;1315
421.750;1311
421.813;1298
421.875;1298
421.938;1311
422.000;1306
422.063;1308
422.125;1308
422.188;1311
422.250;1313
422.313;1301
422.375;1308
422.438;1308
422.500;1303
422.563;1301
422.625;1311
422.688;1311
422.750;1313
422.813;1313
422.875;1308
422.938;1308
423.000;1308
423.063;1298
423.125;1311
423.188;1301
423.250;1303
423.313;1306
423.375;1301
423.438;1313
423.500;1308
423.563;1308
423.625;1303
423.688;1306
423.750;1298
423.813;1303
423.875;1315
423.938;1354
424.000;1489
424.063;1579
424.125;1640
424.188;1623
424.250;1599
424.313;1555
424.375;1420
424.438;1330
424.500;1315
424.563;1323
424.625;1342
424.688;1372
424.750;1345
424.813;1330
424.875;1323
424.938;1308
425.000;1303
425.063;1315
425.125;1306
425.188;1306
425.250;1303
425.313;1308
425.375;1315
425.438;1303
425.500;1303
425.563;1308
425.625;1308
425.688;1303
425.750;1303
425.813;1308
425.875;1318
425.938;1315
426.000;1306
426.063;1311
426.125;1308
426.188;1308
426.250;1301
426.313;1313
426.375;1308
426.438;1306
426.500;1298
426.563;1308
426.625;1311
426.688;1298
426.750;1308
426.813;1306
426.875;1308
426.938;1308
427.000;1311
427.063;1313
427.125;1311
427.188;1308
427.250;1311
427.313;1308
427.375;1303
427.438;1311
427.500;1306
427.563;1306
427.625;1303
427.688;1306
427.750;1306
427.813;1315
427.875;1308
427.938;1311
428.000;1311
428.063;1308
428.125;1306
428.188;1306
428.250;1308
428.313;1298
428.375;1311
428.438;1303
428.500;1308
428.563;1306
428.625;1301
428.688;1308
428.750;1311
428.813;1303
428.875;1313
428.938;1306
429.000;1298
429.063;1308
429.125;1303
429.188;1298
429.250;1303
429.313;1311
429.375;1306
429.438;1303
429.500;1301
429.563;1311
429.625;1308
429.688;1303
429.750;1303
429.813;1308
429.875;1303
429.938;1311
430.000;1298
430.063;1296
430.125;1311
430.188;1303
430.250;1303
430.313;1306
430.375;1296
430.438;1311
430.500;1298
430.563;1308
430.625;1306
430.688;1313
430.750;1313
430.813;1311
430.875;1303
430.938;1315
431.000;1313
431.063;1318
431.125;1311
431.188;1308
431.250;1323
431.313;1320
431.375;1318
431.438;1323
431.500;1330
431.563;1318
431.625;1318
431.688;1325
431.750;1311
431.813;1330
431.875;1325
431.938;1333
432.000;1345
432.063;1335
432.125;1345
432.188;1450
432.250;1499
432.313;1569
432.375;1503
432.438;1481
432.500;1447
432.563;1337
432.625;1318
432.688;1311
432.750;1328
432.813;1318
432.875;1313
432.938;1311
433.000;1298
433.063;1303
433.125;1311
433.188;1296
433.250;1303
433.313;1308
433.375;1308
433.438;1306
433.500;1303
433.563;1303
433.625;1306
433.688;1311
433.750;1311
433.813;1352
433.875;1462
433.938;1428
434.000;1684
434.063;1562
434.125;1630
434.188;1618
434.250;1479
434.313;1337
434.375;1315
434.438;1315
434.500;1308
434.563;1303
434.625;1318
434.688;1303
434.750;1308
434.813;1306
434.875;1308
434.938;1306
435.000;1311
435.063;1311
435.125;1320
435.188;1320
435.250;1347
435.313;1376
435.375;1425
435.438;1440
435.500;1455
435.563;1479
435.625;1481
435.688;1511
435.750;1552
435.813;1596
435.875;1621
435.938;1643
436.000;1630
436.063;1638
436.125;1647
436.188;1660
436.250;1669
436.313;1682
436.375;1682
436.438;1708
436.500;1706
436.563;1713
436.625;1711
436.688;1726
436.750;1718
436.813;1735
436.875;1735
436.938;1748
437.000;1743
437.063;1735
437.125;1738
437.188;1735
437.250;1726
437.313;1708
437.375;1704
437.438;1684
437.500;1657
437.563;1623
437.625;1579
437.688;1545
437.750;1499
437.813;1455
437.875;1408
437.938;1369
438.000;1347
438.063;1381
438.125;1574
438.188;1882
438.250;2141
438.313;2194
438.375;2231
438.438;2175
438.500;2167
438.563;2050
438.625;1838
438.688;1596
438.750;1369
438.813;1330
438.875;1328
438.938;1423
439.000;1752
439.063;1884
439.125;1953
439.188;1933
439.250;1884
439.313;1870
439.375;1677
439.438;1467
439.500;1333
439.563;1303
439.625;1303
439.688;1308
439.750;1291
439.813;1306
439.875;1308
439.938;1306
440.000;1318
440.063;1308
440.125;1311
440.188;1313
440.250;1315
440.313;1308
440.375;1308
440.438;1308
440.500;1311
440.563;1313
440.625;1311
440.688;1306
440.750;1311
440.813;1315
440.875;1320
440.938;1315
441.000;1323
441.063;1315
441.125;1308
441.188;1306
441.250;1308
441.313;1303
441.375;1308
441.438;1301
441.500;1308
441.563;1308
441.625;1306
441.688;1313
441.750;1293
441.813;1303
441.875;1301
441.938;1308
442.000;1306
442.063;1301
442.125;1323
442.188;1413
442.250;1459
442.313;1455
442.375;1496
442.438;1413
442.500;1376
442.563;1328
442.625;1313
442.688;1308
442.750;1306
442.813;1306
442.875;1291
442.938;1301
443.000;1323
443.063;1320
443.125;1323
443.188;1325
443.250;1306
443.313;1291
443.375;1301
443.438;1315
443.500;1298
443.563;1303
443.625;1301
443.688;1298
443.750;1296
443.813;1296
443.875;1298
443.938;1301
444.000;1306
444.063;1311
444.125;1291
444.188;1308
444.250;1308
444.313;1315
444.375;1311
444.438;1308
444.500;1303
444.563;1303
444.625;1296
444.688;1301
444.750;1308
444.813;1308
444.875;1308
444.938;1298
445.000;1303
445.063;1298
445.125;1308
445.188;1303
445.250;1293
445.313;1303
445.375;1311
445.438;1320
445.500;1323
445.563;1323
445.625;1313
445.688;1369
445.750;1313
445.813;1315
445.875;1306
445.938;1303
446.000;1293
446.063;1303
446.125;1303
446.188;1311
446.250;1301
446.313;1293
446.375;1291
446.438;1298
446.500;1293
446.563;1293
446.625;1301
446.688;1291
446.750;1286
446.813;1296
446.875;1301
446.938;1303
447.000;1298
447.063;1298
447.125;1298
447.188;1296
447.250;1303
447.313;1298
447.375;1301
447.438;1303
447.500;1289
447.563;1303
447.625;1291
447.688;1296
447.750;1296
447.813;1293
447.875;1301
447.938;1306
448.000;1293
448.063;1311
448.125;1306
448.188;1308
448.250;1296
448.313;1293
448.375;1311
448.438;1293
448.500;1303
448.563;1308
448.625;1301
448.688;1298
448.750;1306
448.813;1301
448.875;1301
448.938;1306
449.000;1293
449.063;1306
449.125;1306
449.188;1308
449.250;1301
449.313;1318
449.375;1306
449.438;1308
449.500;1296
449.563;1308
449.625;1306
449.688;1308
449.750;1315
449.813;1313
449.875;1308
449.938;1313
450.000;1328
450.063;1330
450.125;1396
450.188;1379
450.250;1960
450.313;1469
450.375;1374
450.438;1347
450.500;1325
450.563;1328
450.625;1499
450.688;1335
450.750;1435
450.813;1364
450.875;1354
450.938;1352
451.000;1362
451.063;1362
451.125;1364
451.188;1357
451.250;1357
451.313;1359
451.375;1364
451.438;1374
451.500;1374
451.563;1364
451.625;1354
451.688;1357
451.750;1367
451.813;1362
451.875;1354
451.938;1362
452.000;1362
452.063;1367
452.125;1357
452.188;1374
452.250;1367
452.313;1394
452.375;1423
452.438;1445
452.500;1411
452.563;1413
452.625;1384
452.688;1376
452.750;1367
452.813;1381
452.875;1376
452.938;1364
453.000;1372
453.063;1376
453.125;1367
453.188;1376
453.250;1376
453.313;1379
453.375;1386
453.438;1386
453.500;1367
453.563;1362
453.625;1362
453.688;1359
453.750;1347
453.813;1347
453.875;1342
453.938;1354
454.000;1345
454.063;1352
454.125;1347
454.188;1345
454.250;1347
454.313;1340
454.375;1347
454.438;1364
454.500;1357
454.563;1357
454.625;1374
454.688;1381
454.750;1384
454.813;1389
454.875;1386
454.938;1386
455.000;1396
455.063;1389
455.125;1403
455.188;1394
455.250;1394
455.313;1381
455.375;1401
455.438;1394
455.500;1398
455.563;1396
455.625;1386
455.688;1386
455.750;1389
455.813;1394
455.875;1394
455.938;1396
456.000;1389
456.063;1403
456.125;1394
456.188;1416
456.250;1486
456.313;1513
456.375;1523
456.438;1477
456.500;1474
456.563;1408
456.625;1391
456.688;1384
456.750;1386
456.813;1384
456.875;1381
456.938;1386
457.000;1384
457.063;1386
457.125;1379
457.188;1367
457.250;1389
457.313;1381
457.375;1384
457.438;1384
457.500;1379
457.563;1376
457.625;1376
457.688;1376
457.750;1372
457.813;1364
457.875;1374
457.938;1367
458.000;1374
458.063;1381
458.125;1372
458.188;1374
458.250;1381
458.313;1389
458.375;1384
458.438;1374
458.500;1364
458.563;1369
458.625;1364
458.688;1376
458.750;1372
458.813;1367
458.875;1362
458.938;1362
459.000;1379
459.063;1367
459.125;1359
459.188;1362
459.250;1359
459.313;1367
459.375;1362
459.438;1357
459.500;1357
459.563;1369
459.625;1362
459.688;1354
459.750;1354
459.813;1345
459.875;1364
459.938;1364
460.000;1357
460.063;1354
460.125;1359
460.188;1342
460.250;1354
460.313;1350
460.375;1362
460.438;1352
460.500;1352
460.563;1345
460.625;1340
460.688;1345
460.750;1352
460.813;1352
460.875;1367
460.938;1362
461.000;1357
461.063;1337
461.125;1350
461.188;1345
461.250;1337
461.313;1342
461.375;1340
461.438;1347
461.500;1340
461.563;1337
461.625;1330
461.688;1337
461.750;1333
461.813;1328
461.875;1335
461.938;1335
462.000;1330
462.063;1337
462.125;1337
462.188;1330
462.250;1345
462.313;1330
462.375;1337
462.438;1333
462.500;1342
462.563;1340
462.625;1342
462.688;1342
462.750;1345
462.813;1330
462.875;1335
462.938;1325
463.000;1335
463.063;1337
463.125;1328
463.188;1328
463.250;1335
463.313;1333
463.375;1330
463.438;1328
463.500;1333
463.563;1328
463.625;1330
463.688;1333
463.750;1328
463.813;1330
463.875;1342
463.938;1347
464.000;1337
464.063;1337
464.125;1335
464.188;1333
464.250;1335
464.313;1345
464.375;1337
464.438;1333
464.500;1335
464.563;1337
464.625;1335
464.688;1345
464.750;1328
464.813;1335
464.875;1345
464.938;1337
465.000;1330
465.063;1325
465.125;1347
465.188;1342
465.250;1333
465.313;1347
465.375;1354
465.438;1345
465.500;1347
465.563;1333
465.625;1347
465.688;1352
465.750;1347
465.813;1347
465.875;1352
465.938;1354
466.000;1350
466.063;1350
466.125;1352
466.188;1359
466.250;1352
466.313;1357
466.375;1345
466.438;1335
466.500;1347
466.563;1350
466.625;1345
466.688;1340
466.750;1347
466.813;1347
466.875;1345
466.938;1357
467.000;1374
467.063;1389
467.125;1384
467.188;1367
467.250;1367
467.313;1347
467.375;1357
467.438;1352
467.500;1350
467.563;1352
467.625;1342
467.688;1342
467.750;1354
467.813;1357
467.875;1350
467.938;1359
468.000;1367
468.063;1362
468.125;1379
468.188;1372
468.250;1403
468.313;1423
468.375;1433
468.438;1394
468.500;1398
468.563;1364
468.625;1345
468.688;1357
468.750;1357
468.813;1345
468.875;1345
468.938;1337
469.000;1342
469.063;1352
469.125;1350
469.188;1342
469.250;1345
469.313;1352
469.375;1345
469.438;1347
469.500;1345
469.563;1340
469.625;1342
469.688;1342
469.750;1345
469.813;1345
469.875;1337
469.938;1345
470.000;1340
470.063;1350
470.125;1340
470.188;1359
470.250;1359
470.313;1350
470.375;1347
470.438;1354
470.500;1345
470.563;1345
470.625;1352
470.688;1359
470.750;1357
470.813;1352
470.875;1357
470.938;1359
471.000;1364
471.063;1352
471.125;1362
471.188;1367
471.250;1367
471.313;1362
471.375;1364
471.438;1364
471.500;1376
471.563;1362
471.625;1367
471.688;1364
471.750;1364
471.813;1364
471.875;1364
471.938;1359
472.000;1354
472.063;1369
472.125;1372
472.188;1362
472.250;1376
472.313;1369
472.375;1367
472.438;1367
472.500;1376
472.563;1381
472.625;1379
472.688;1372
472.750;1379
472.813;1372
472.875;1372
472.938;1364
473.000;1374
473.063;1372
473.125;1372
473.188;1367
473.250;1374
473.313;1369
473.375;1381
473.438;1369
473.500;1381
473.563;1386
473.625;1381
473.688;1376
473.750;1379
473.813;1386
473.875;1386
473.938;1386
474.000;1381
474.063;1379
474.125;1376
474.188;1376
474.250;1374
474.313;1384
474.375;1376
474.438;1386
474.500;1379
474.563;1384
474.625;1386
474.688;1386
474.750;1384
474.813;1394
474.875;1398
474.938;1384
475.000;1391
475.063;1391
475.125;1403
475.188;1403
475.250;1418
475.313;1416
475.375;1416
475.438;1406
475.500;1406
475.563;1406
475.625;1416
475.688;1418
475.750;1423
475.813;1428
475.875;1442
475.938;1435
476.000;1416
476.063;1406
476.125;1418
476.188;1413
476.250;1420
476.313;1403
476.375;1413
476.438;1411
476.500;1391
476.563;1391
476.625;1384
476.688;1403
476.750;1394
476.813;1403
476.875;1413
476.938;1403
477.000;1413
477.063;1418
477.125;1413
477.188;1411
477.250;1406
477.313;1416
477.375;1430
477.438;1445
477.500;1430
477.563;1425
477.625;1411
477.688;1406
477.750;1420
477.813;1440
477.875;1433
477.938;1445
478.000;1442
478.063;1425
478.125;1416
478.188;1428
478.250;1450
478.313;1479
478.375;1486
478.438;1506
478.500;1508
478.563;1499
478.625;1503
478.688;1503
478.750;1494
478.813;1503
478.875;1513
478.938;1518
479.000;1503
479.063;1513
479.125;1518
479.188;1511
479.250;1518
479.313;1506
479.375;1494
479.438;1511
479.500;1520
479.563;1528
479.625;1518
479.688;1525
479.750;1530
479.813;1528
479.875;1525
479.938;1538
480.000;1564
480.063;1591
480.125;1613
480.188;1586
480.250;1564
480.313;1540
480.375;1535
480.438;1525
480.500;1538
480.563;1562
480.625;1560
480.688;1555
480.750;1552
480.813;1533
480.875;1516
480.938;1513
481.000;1516
481.063;1520
481.125;1520
481.188;1511
481.250;1508
481.313;1530
481.375;1520
481.438;1533
481.500;1550
481.563;1555
481.625;1542
481.688;1540
481.750;1528
481.813;1520
481.875;1506
481.938;1496
482.000;1503
482.063;1530
482.125;1555
482.188;1577
482.250;1538
482.313;1552
482.375;1555
482.438;1550
482.500;1535
482.563;1538
482.625;1547
482.688;1564
482.750;1567
482.813;1552
482.875;1547
482.938;1520
483.000;1516
483.063;1499
483.125;1491
483.188;1491
483.250;1518
483.313;1525
483.375;1528
483.438;1518
483.500;1528
483.563;1535
483.625;1523
483.688;1538
483.750;1538
483.813;1557
483.875;1545
483.938;1538
484.000;1520
484.063;1508
484.125;1513
484.188;1525
484.250;1535
484.313;1550
484.375;1535
484.438;1545
484.500;1547
484.563;1525
484.625;1525
484.688;1530
484.750;1535
484.813;1555
484.875;1562
484.938;1577
485.000;1577
485.063;1564
485.125;1555
485.188;1525
485.250;1525
485.313;1528
485.375;1535
485.438;1540
485.500;1562
485.563;1560
485.625;1550
485.688;1552
485.750;1530
485.813;1530
485.875;1513
485.938;1506
486.000;1489
486.063;1462
486.125;1459
486.188;1477
486.250;1457
486.313;1425
486.375;1469
486.438;1469
486.500;1467
486.563;1481
486.625;1467
486.688;1464
486.750;1479
486.813;1484
486.875;1477
486.938;1472
487.000;1477
487.063;1486
487.125;1477
487.188;1442
487.250;1462
487.313;1477
487.375;1491
487.438;1479
487.500;1464
487.563;1462
487.625;1477
487.688;1467
487.750;1464
487.813;1464
487.875;1459
487.938;1474
488.000;1469
488.063;1440
488.125;1469
488.188;1474
488.250;1472
488.313;1474
488.375;1467
488.438;1469
488.500;1474
488.563;1479
488.625;1474
488.688;1462
488.750;1469
488.813;1481
488.875;1469
488.938;1447
489.000;1464
489.063;1469
489.125;1484
489.188;1479
489.250;1450
489.313;1452
489.375;1452
489.438;1457
489.500;1447
489.563;1452
489.625;1464
489.688;1455
489.750;1445
489.813;1418
489.875;1433
489.938;1457
490.000;1450
490.063;1464
490.125;1457
490.188;1455
490.250;1447
490.313;1442
490.375;1403
490.438;1433
490.500;1433
490.563;1416
490.625;1416
490.688;1403
490.750;1403
490.813;1398
490.875;1394
490.938;1386
491.000;1384
491.063;1372
491.125;1367
491.188;1372
491.250;1359
491.313;1369
491.375;1374
491.438;1369
491.500;1372
491.563;1391
491.625;1408
491.688;1425
491.750;1396
491.813;1389
491.875;1367
491.938;1379
492.000;1374
492.063;1386
492.125;1372
492.188;1372
492.250;1437
492.313;1467
492.375;1486
492.438;1459
492.500;1445
492.563;1396
492.625;1354
492.688;1350
492.750;1352
492.813;1342
492.875;1340
492.938;1345
493.000;1350
493.063;1350
493.125;1347
493.188;1345
493.250;1357
493.313;1347
493.375;1354
493.438;1335
493.500;1345
493.563;1337
493.625;1342
493.688;1345
493.750;1345
493.813;1347
493.875;1340
493.938;1347
494.000;1342
494.063;1340
494.125;1342
494.188;1340
494.250;1335
494.313;1345
494.375;1345
494.438;1345
494.500;1342
494.563;1354
494.625;1359
494.688;1364
494.750;1372
494.813;1359
494.875;1372
494.938;1367
495.000;1369
495.063;1372
495.125;1364
495.188;1367
495.250;1376
495.313;1367
495.375;1376
495.438;1376
495.500;1367
495.563;1362
495.625;1359
495.688;1357
495.750;1374
495.813;1364
495.875;1369
495.938;1367
496.000;1379
496.063;1364
496.125;1369
496.188;1374
496.250;1367
496.313;1369
496.375;1362
496.438;1364
496.500;1362
496.563;1364
496.625;1364
496.688;1369
496.750;1376
496.813;1374
496.875;1367
496.938;1372
497.000;1359
497.063;1367
497.125;1372
497.188;1381
497.250;1386
497.313;1386
497.375;1386
497.438;1374
497.500;1372
497.563;1367
497.625;1364
497.688;1374
497.750;1367
497.813;1389
497.875;1384
497.938;1386
498.000;1386
498.063;1401
498.125;1389
498.188;1384
498.250;1384
498.313;1389
498.375;1384
498.438;1384
498.500;1374
498.563;1381
498.625;1389
498.688;1398
498.750;1386
498.813;1394
498.875;1401
498.938;1403
499.000;1398
499.063;1398
499.125;1396
499.188;1396
499.250;1401
499.313;1396
499.375;1394
499.438;1394
499.500;1396
499.563;1394
499.625;1389
499.688;1391
499.750;1379
499.813;1384
499.875;1394
499.938;1435
500.000;1464
500.063;1506
500.125;1486
500.188;1474
500.250;1440
500.313;1406
500.375;1398
500.438;1391
500.500;1394
500.563;1396
500.625;1401
500.688;1406
500.750;1403
500.813;1401
500.875;1408
500.938;1403
501.000;1401
501.063;1401
501.125;1408
501.188;1396
501.250;1413
501.313;1411
501.375;1406
501.438;1401
501.500;1394
501.563;1374
501.625;1364
501.688;1367
501.750;1364
501.813;1345
501.875;1345
501.938;1342
502.000;1325
502.063;1328
502.125;1337
502.188;1333
502.250;1323
502.313;1330
502.375;1325
502.438;1333
502.500;1340
502.563;1352
502.625;1362
502.688;1369
502.750;1384
502.813;1391
502.875;1394
502.938;1401
503.000;1391
503.063;1403
503.125;1398
503.188;1398
503.250;1386
503.313;1384
503.375;1386
503.438;1386
503.500;1381
503.563;1386
503.625;1389
503.688;1384
503.750;1394
503.813;1391
503.875;1406
503.938;1386
504.000;1396
504.063;1391
504.125;1394
504.188;1391
504.250;1401
504.313;1418
504.375;1450
504.438;1416
504.500;1413
504.563;1406
504.625;1379
504.688;1386
504.750;1367
504.813;1372
504.875;1389
504.938;1384
505.000;1384
505.063;1379
505.125;1386
505.188;1374
505.250;1379
505.313;1379
505.375;1374
505.438;1381
505.500;1372
505.563;1376
505.625;1374
505.688;1367
505.750;1367
505.813;1374
505.875;1367
505.938;1367
506.000;1379
506.063;1374
506.125;1376
506.188;1364
506.250;1369
506.313;1364
506.375;1369
506.438;1372
506.500;1369
506.563;1374
506.625;1374
506.688;1367
506.750;1369
506.813;1364
506.875;1374
506.938;1367
507.000;1367
507.063;1369
507.125;1354
507.188;1374
507.250;1369
507.313;1359
507.375;1359
507.438;1362
507.500;1367
507.563;1359
507.625;1352
507.688;1362
507.750;1364
507.813;1359
507.875;1354
507.938;1359
508.000;1357
508.063;1357
508.125;1357
508.188;1359
508.250;1345
508.313;1357
508.375;1350
508.438;1350
508.500;1362
508.563;1354
508.625;1345
508.688;1357
508.750;1350
508.813;1352
508.875;1354
508.938;1357
509.000;1342
509.063;1347
509.125;1345
509.188;1357
509.250;1354
509.313;1350
509.375;1352
509.438;1342
509.500;1335
509.563;1337
509.625;1330
509.688;1320
509.750;1323
509.813;1325
509.875;1330
509.938;1328
510.000;1337
510.063;1333
510.125;1337
510.188;1335
510.250;1328
510.313;1328
510.375;1325
510.438;1325
510.500;1328
510.563;1328
510.625;1340
510.688;1345
510.750;1354
510.813;1350
510.875;1337
510.938;1337
511.000;1342
511.063;1337
511.125;1335
511.188;1335
511.250;1345
511.313;1340
511.375;1347
511.438;1347
511.500;1337
511.563;1342
511.625;1337
511.688;1325
511.750;1333
511.813;1333
511.875;1335
511.938;1340
512.000;1342
512.063;1337
512.125;1342
512.188;1335
512.250;1347
512.313;1330
512.375;1333
512.438;1337
512.500;1335
512.563;1330
512.625;1340
512.688;1345
512.750;1340
512.813;1342
512.875;1337
512.938;1340
513.000;1340
513.063;1350
513.125;1352
513.188;1337
513.250;1340
513.313;1342
513.375;1335
513.438;1347
513.500;1347
513.563;1340
513.625;1347
513.688;1342
513.750;1340
513.813;1342
513.875;1337
513.938;1337
514.000;1347
514.063;1340
514.125;1342
514.188;1337
514.250;1350
514.313;1342
514.375;1340
514.438;1342
514.500;1337
514.563;1330
514.625;1337
514.688;1340
514.750;1350
514.813;1337
514.875;1347
514.938;1345
515.000;1333
515.063;1342
515.125;1340
515.188;1342
515.250;1335
515.313;1340
515.375;1342
515.438;1328
515.500;1335
515.563;1333
515.625;1320
515.688;1342
515.750;1335
515.813;1333
515.875;1333
515.938;1333
516.000;1333
516.063;1333
516.125;1340
516.188;1350
516.250;1367
516.313;1391
516.375;1403
516.438;1374
516.500;1367
516.563;1357
516.625;1340
516.688;1335
516.750;1325
516.813;1337
516.875;1330
516.938;1333
517.000;1330
517.063;1337
517.125;1330
517.188;1323
517.250;1325
517.313;1330
517.375;1337
517.438;1323
517.500;1325
517.563;1325
517.625;1325
517.688;1330
517.750;1313
517.813;1318
517.875;1328
517.938;1325
518.000;1330
518.063;1323
518.125;1320
518.188;1318
518.250;1320
518.313;1318
518.375;1323
518.438;1318
518.500;1328
518.563;1320
518.625;1323
518.688;1323
518.750;1325
518.813;1325
518.875;1333
518.938;1325
519.000;1335
519.063;1337
519.125;1335
519.188;1335
519.250;1335
519.313;1333
519.375;1340
519.438;1335
519.500;1315
519.563;1335
519.625;1328
519.688;1323
519.750;1333
519.813;1333
519.875;1337
519.938;1333
520.000;1340
520.063;1333
520.125;1335
520.188;1333
520.250;1340
520.313;1325
520.375;1335
520.438;1337
520.500;1337
520.563;1333
520.625;1335
520.688;1340
520.750;1335
520.813;1333
520.875;1337
520.938;1330
521.000;1345
521.063;1328
521.125;1333
521.188;1340
521.250;1335
521.313;1340
521.375;1333
521.438;1342
521.500;1335
521.563;1337
521.625;1340
521.688;1337
521.750;1342
521.813;1342
521.875;1345
521.938;1337
522.000;1335
522.063;1350
522.125;1335
522.188;1342
522.250;1340
522.313;1342
522.375;1340
522.438;1342
522.500;1340
522.563;1350
522.625;1342
522.688;1340
522.750;1335
522.813;1345
522.875;1333
522.938;1342
523.000;1345
523.063;1345
523.125;1342
523.188;1342
523.250;1347
523.313;1340
523.375;1335
523.438;1337
523.500;1342
523.563;1345
523.625;1340
523.688;1335
523.750;1350
523.813;1335
523.875;1357
523.938;1337
524.000;1350
524.063;1352
524.125;1342
524.188;1345
524.250;1342
524.313;1342
524.375;1337
524.438;1333
524.500;1335
524.563;1354
524.625;1340
524.688;1347
524.750;1340
524.813;1347
524.875;1337
524.938;1345
525.000;1342
525.063;1342
525.125;1347
525.188;1345
525.250;1340
525.313;1335
525.375;1342
525.438;1330
525.500;1333
525.563;1330
525.625;1323
525.688;1320
525.750;1325
525.813;1318
525.875;1318
525.938;1318
526.000;1311
526.063;1320
526.125;1315
526.188;1320
526.250;1318
526.313;1311
526.375;1318
526.438;1320
526.500;1323
526.563;1318
526.625;1323
526.688;1325
526.750;1335
526.813;1333
526.875;1335
526.938;1333
527.000;1337
527.063;1333
527.125;1342
527.188;1333
527.250;1330
527.313;1333
527.375;1325
527.438;1330
527.500;1335
527.563;1328
527.625;1330
527.688;1335
527.750;1323
527.813;1337
527.875;1335
527.938;1335
528.000;1342
528.063;1337
528.125;1330
528.188;1333
528.250;1335
528.313;1323
528.375;1335
528.438;1337
528.500;1330
528.563;1335
528.625;1328
528.688;1323
528.750;1330
528.813;1328
528.875;1323
528.938;1318
529.000;1318
529.063;1328
529.125;1313
529.188;1315
529.250;1320
529.313;1318
529.375;1323
529.438;1328
529.500;1318
529.563;1323
529.625;1323
529.688;1325
529.750;1313
529.813;1320
529.875;1320
529.938;1325
530.000;1306
530.063;1315
530.125;1315
530.188;1318
530.250;1318
530.313;1318
530.375;1323
530.438;1328
530.500;1318
530.563;1320
530.625;1330
530.688;1318
530.750;1320
530.813;1313
530.875;1315
530.938;1311
531.000;1308
531.063;1318
531.125;1325
531.188;1323
531.250;1318
531.313;1320
531.375;1320
531.438;1320
531.500;1323
531.563;1311
531.625;1313
531.688;1320
531.750;1315
531.813;1325
531.875;1328
531.938;1323
532.000;1328
532.063;1328
532.125;1328
532.188;1320
532.250;1311
532.313;1311
532.375;1318
532.438;1323
532.500;1320
532.563;1320
532.625;1318
532.688;1318
532.750;1318
532.813;1308
532.875;1315
532.938;1308
533.000;1318
533.063;1308
533.125;1308
533.188;1313
533.250;1323
533.313;1308
533.375;1318
533.438;1313
533.500;1315
533.563;1303
533.625;1313
533.688;1303
533.750;1306
533.813;1306
533.875;1311
533.938;1313
534.000;1318
534.063;1308
534.125;1320
534.188;1308
534.250;1315
534.313;1313
534.375;1301
534.438;1306
534.500;1308
534.563;1323
534.625;1308
534.688;1315
534.750;1306
534.813;1311
534.875;1306
534.938;1308
535.000;1320
535.063;1323
535.125;1323
535.188;1318
535.250;1311
535.313;1315
535.375;1318
535.438;1320
535.500;1306
535.563;1313
535.625;1311
535.688;1318
535.750;1303
535.813;1315
535.875;1315
535.938;1323
536.000;1311
536.063;1308
536.125;1303
536.188;1303
536.250;1306
536.313;1308
536.375;1311
536.438;1315
536.500;1315
536.563;1315
536.625;1313
536.688;1308
536.750;1315
536.813;1308
536.875;1313
536.938;1320
537.000;1323
537.063;1315
537.125;1325
537.188;1318
537.250;1318
537.313;1313
537.375;1313
537.438;1313
537.500;1318
537.563;1308
537.625;1320
537.688;1315
537.750;1308
537.813;1313
537.875;1318
537.938;1320
538.000;1315
538.063;1318
538.125;1306
538.188;1320
538.250;1311
538.313;1303
538.375;1315
538.438;1311
538.500;1308
538.563;1320
538.625;1318
538.688;1325
538.750;1318
538.813;1320
538.875;1313
538.938;1311
539.000;1325
539.063;1320
539.125;1330
539.188;1325
539.250;1325
539.313;1325
539.375;1318
539.438;1320
539.500;1330
539.563;1325
539.625;1325
539.688;1328
539.750;1323
539.813;1330
539.875;1340
539.938;1342
540.000;1372
540.063;1362
540.125;1359
540.188;1345
540.250;1347
540.313;1333
540.375;1345
540.438;1335
540.500;1333
540.563;1337
540.625;1325
540.688;1333
540.750;1337
540.813;1354
540.875;1350
540.938;1335
541.000;1335
541.063;1325
541.125;1320
541.188;1318
541.250;1323
541.313;1320
541.375;1308
541.438;1315
541.500;1313
541.563;1308
541.625;1308
541.688;1318
541.750;1323
541.813;1311
541.875;1318
541.938;1315
542.000;1318
542.063;1335
542.125;1315
542.188;1328
542.250;1328
542.313;1328
542.375;1330
542.438;1315
542.500;1311
542.563;1311
542.625;1318
542.688;1330
542.750;1325
542.813;1320
542.875;1323
542.938;1320
543.000;1308
543.063;1318
543.125;1315
543.188;1325
543.250;1330
543.313;1318
543.375;1325
543.438;1308
543.500;1323
543.563;1323
543.625;1330
543.688;1313
543.750;1328
543.813;1323
543.875;1320
543.938;1318
544.000;1323
544.063;1323
544.125;1313
544.188;1328
544.250;1315
544.313;1320
544.375;1330
544.438;1330
544.500;1323
544.563;1323
544.625;1320
544.688;1323
544.750;1311
544.813;1325
544.875;1318
544.938;1320
545.000;1318
545.063;1323
545.125;1318
545.188;1315
545.250;1318
545.313;1315
545.375;1330
545.438;1323
545.500;1330
545.563;1330
545.625;1325
545.688;1325
545.750;1325
545.813;1325
545.875;1330
545.938;1335
546.000;1325
546.063;1318
546.125;1320
546.188;1323
546.250;1318
546.313;1335
546.375;1323
546.438;1325
546.500;1328
546.563;1328
546.625;1325
546.688;1328
546.750;1318
546.813;1333
546.875;1330
546.938;1325
547.000;1328
547.063;1323
547.125;1318
547.188;1333
547.250;1311
547.313;1320
547.375;1325
547.438;1328
547.500;1320
547.563;1328
547.625;1328
547.688;1328
547.750;1328
547.813;1340
547.875;1333
547.938;1315
548.000;1330
548.063;1318
548.125;1328
548.188;1325
548.250;1328
548.313;1320
548.375;1330
548.438;1320
548.500;1313
548.563;1325
548.625;1328
548.688;1328
548.750;1328
548.813;1318
548.875;1323
548.938;1325
549.000;1328
549.063;1325
549.125;1325
549.188;1313
549.250;1320
549.313;1325
549.375;1318
549.438;1333
549.500;1323
549.563;1318
549.625;1318
549.688;1320
549.750;1328
549.813;1330
549.875;1320
549.938;1320
550.000;1320
550.063;1313
550.125;1323
550.188;1330
550.250;1318
550.313;1315
550.375;1323
550.438;1323
550.500;1325
550.563;1323
550.625;1323
550.688;1325
550.750;1323
550.813;1320
550.875;1318
550.938;1325
551.000;1318
551.063;1323
551.125;1335
551.188;1337
551.250;1323
551.313;1318
551.375;1323
551.438;1320
551.500;1313
551.563;1318
551.625;1320
551.688;1323
551.750;1325
551.813;1318
551.875;1328
551.938;1320
552.000;1328
552.063;1313
552.125;1333
552.188;1323
552.250;1330
552.313;1333
552.375;1345
552.438;1337
552.500;1328
552.563;1325
552.625;1323
552.688;1315
552.750;1320
552.813;1318
552.875;1313
552.938;1330
553.000;1315
553.063;1313
553.125;1325
553.188;1318
553.250;1328
553.313;1325
553.375;1320
553.438;1323
553.500;1311
553.563;1308
553.625;1320
553.688;1320
553.750;1323
553.813;1323
553.875;1323
553.938;1318
554.000;1323
554.063;1323
554.125;1330
554.188;1323
554.250;1323
554.313;1315
554.375;1318
554.438;1323
554.500;1318
554.563;1323
554.625;1318
554.688;1320
554.750;1323
554.813;1323
554.875;1313
554.938;1313
555.000;1315
555.063;1308
555.125;1323
555.188;1311
555.250;1323
555.313;1318
555.375;1311
555.438;1325
555.500;1318
555.563;1315
555.625;1308
555.688;1330
555.750;1320
555.813;1311
555.875;1315
555.938;1311
556.000;1315
556.063;1313
556.125;1308
556.188;1303
556.250;1315
556.313;1315
556.375;1313
556.438;1318
556.500;1318
556.563;1311
556.625;1318
556.688;1306
556.750;1313
556.813;1318
556.875;1301
556.938;1301
557.000;1306
557.063;1311
557.125;1306
557.188;1311
557.250;1313
557.313;1325
557.375;1318
557.438;1311
557.500;1311
557.563;1308
557.625;1313
557.688;1306
557.750;1311
557.813;1313
557.875;1323
557.938;1308
558.000;1318
558.063;1347
558.125;1499
558.188;1669
558.250;1772
558.313;1843
558.375;1882
558.438;1899
558.500;1901
558.563;1896
558.625;1884
558.688;1882
558.750;1882
558.813;1896
558.875;1904
558.938;1899
559.000;1921
559.063;1921
559.125;1904
559.188;1899
559.250;1884
559.313;1867
559.375;1853
559.438;1853
559.500;1857
559.563;1882
559.625;1877
559.688;1882
559.750;1884
559.813;1867
559.875;1845
559.938;1833
560.000;1809
560.063;1804
560.125;1799
560.188;1791
560.250;1784
560.313;1784
560.375;1762
560.438;1735
560.500;1699
560.563;1660
560.625;1635
560.688;1623
560.750;1618
560.813;1616
560.875;1621
560.938;1625
561.000;1647
561.063;1665
561.125;1679
561.188;1667
561.250;1647
561.313;1633
561.375;1630
561.438;1652
561.500;1687
561.563;1696
561.625;1706
561.688;1708
561.750;1708
561.813;1713
561.875;1728
561.938;1738
562.000;1760
562.063;1767
562.125;1779
562.188;1787
562.250;1779
562.313;1784
562.375;1799
562.438;1809
562.500;1833
562.563;1845
562.625;1843
562.688;1833
562.750;1833
562.813;1826
562.875;1826
562.938;1848
563.000;1877
563.063;1884
563.125;1904
563.188;1884
563.250;1879
563.313;1867
563.375;1867
563.438;1879
563.500;1887
563.563;1904
563.625;1904
563.688;1906
563.750;1899
563.813;1911
563.875;1909
563.938;1901
564.000;1892
564.063;1855
564.125;1860
564.188;1840
564.250;1862
564.313;1865
564.375;1870
564.438;1860
564.500;1853
564.563;1848
564.625;1843
564.688;1855
564.750;1865
564.813;1877
564.875;1867
564.938;1872
565.000;1853
565.063;1845
565.125;1835
565.188;1826
565.250;1809
565.313;1794
565.375;1789
565.438;1782
565.500;1762
565.563;1748
565.625;1728
565.688;1718
565.750;1721
565.813;1711
565.875;1674
565.938;1611
566.000;1550
566.063;1430
566.125;1352
566.188;1323
566.250;1320
566.313;1330
566.375;1340
566.438;1325
566.500;1340
566.563;1342
566.625;1323
566.688;1335
566.750;1335
566.813;1333
566.875;1333
566.938;1337
567.000;1335
567.063;1342
567.125;1345
567.188;1345
567.250;1340
567.313;1342
567.375;1342
567.438;1345
567.500;1345
567.563;1352
567.625;1345
567.688;1342
567.750;1345
567.813;1347
567.875;1340
567.938;1347
568.000;1335
568.063;1337
568.125;1345
568.188;1345
568.250;1347
568.313;1350
568.375;1340
568.438;1340
568.500;1337
568.563;1350
568.625;1340
568.688;1340
568.750;1342
568.813;1347
568.875;1345
568.938;1347
569.000;1337
569.063;1337
569.125;1342
569.188;1345
569.250;1345
569.313;1337
569.375;1337
569.438;1323
569.500;1335
569.563;1325
569.625;1323
569.688;1333
569.750;1330
569.813;1328
569.875;1328
569.938;1333
570.000;1328
570.063;1330
570.125;1330
570.188;1318
570.250;1333
570.313;1330
570.375;1325
570.438;1333
570.500;1330
570.563;1330
570.625;1333
570.688;1330
570.750;1335
570.813;1320
570.875;1328
570.938;1325
571.000;1328
571.063;1323
571.125;1328
571.188;1328
571.250;1323
571.313;1325
571.375;1333
571.438;1325
571.500;1320
571.563;1328
571.625;1328
571.688;1328
571.750;1320
571.813;1328
571.875;1335
571.938;1330
572.000;1330
572.063;1330
572.125;1325
572.188;1328
572.250;1333
572.313;1337
572.375;1323
572.438;1328
572.500;1330
572.563;1328
572.625;1335
572.688;1328
572.750;1333
572.813;1340
572.875;1337
572.938;1340
573.000;1335
573.063;1325
573.125;1333
573.188;1313
573.250;1325
573.313;1325
573.375;1323
573.438;1325
573.500;1318
573.563;1330
573.625;1325
573.688;1328
573.750;1325
573.813;1330
573.875;1330
573.938;1323
574.000;1328
574.063;1330
574.125;1328
574.188;1345
574.250;1369
574.313;1403
574.375;1416
574.438;1406
574.500;1423
574.563;1406
574.625;1416
574.688;1406
574.750;1413
574.813;1428
574.875;1442
574.938;1450
575.000;1442
575.063;1447
575.125;1447
575.188;1464
575.250;1462
575.313;1472
575.375;1477
575.438;1477
575.500;1464
575.563;1472
575.625;1464
575.688;1472
575.750;1474
575.813;1467
575.875;1467
575.938;1477
576.000;1477
576.063;1472
576.125;1474
576.188;1477
576.250;1474
576.313;1481
576.375;1484
576.438;1489
576.500;1494
576.563;1501
576.625;1503
576.688;1499
576.750;1496
576.813;1491
576.875;1494
576.938;1496
577.000;1499
577.063;1499
577.125;1486
577.188;1494
577.250;1491
577.313;1477
577.375;1474
577.438;1472
577.500;1481
577.563;1481
577.625;1486
577.688;1491
577.750;1484
577.813;1481
577.875;1484
577.938;1486
578.000;1494
578.063;1506
578.125;1506
578.188;1513
578.250;1520
578.313;1518
578.375;1511
578.438;1516
578.500;1513
578.563;1511
578.625;1516
578.688;1508
578.750;1516
578.813;1516
578.875;1511
578.938;1513
579.000;1513
579.063;1513
579.125;1518
579.188;1513
579.250;1518
579.313;1520
579.375;1520
579.438;1520
579.500;1520
579.563;1511
579.625;1513
579.688;1511
579.750;1508
579.813;1516
579.875;1506
579.938;1501
580.000;1511
580.063;1513
580.125;1518
580.188;1523
580.250;1528
580.313;1530
580.375;1528
580.438;1525
580.500;1518
580.563;1513
580.625;1518
580.688;1516
580.750;1511
580.813;1518
580.875;1513
580.938;1513
581.000;1501
581.063;1501
581.125;1501
581.188;1501
581.250;1506
581.313;1503
581.375;1501
581.438;1503
581.500;1518
581.563;1511
581.625;1501
581.688;1511
581.750;1501
581.813;1484
581.875;1452
581.938;1413
582.000;1376
582.063;1335
582.125;1318
582.188;1313
582.250;1320
582.313;1311
582.375;1323
582.438;1318
582.500;1311
582.563;1315
582.625;1320
582.688;1306
582.750;1315
582.813;1315
582.875;1308
582.938;1323
583.000;1323
583.063;1315
583.125;1318
583.188;1315
583.250;1325
583.313;1313
583.375;1323
583.438;1313
583.500;1313
583.563;1318
583.625;1308
583.688;1306
583.750;1311
583.813;1315
583.875;1315
583.938;1318
584.000;1311
584.063;1313
584.125;1315
584.188;1318
584.250;1318
584.313;1308
584.375;1308
584.438;1306
584.500;1301
584.563;1303
584.625;1318
584.688;1311
584.750;1301
584.813;1315
584.875;1306
584.938;1303
585.000;1315
585.063;1311
585.125;1306
585.188;1308
585.250;1308
585.313;1311
585.375;1311
585.438;1311
585.500;1318
585.563;1308
585.625;1311
585.688;1306
585.750;1301
585.813;1313
585.875;1303
585.938;1311
586.000;1308
586.063;1313
586.125;1308
586.188;1313
586.250;1308
586.313;1315
586.375;1306
586.438;1308
586.500;1311
586.563;1303
586.625;1313
586.688;1306
586.750;1323
586.813;1315
586.875;1303
586.938;1311
587.000;1303
587.063;1303
587.125;1311
587.188;1301
587.250;1311
587.313;1313
587.375;1311
587.438;1301
587.500;1308
587.563;1313
587.625;1311
587.688;1303
587.750;1315
587.813;1303
587.875;1308
587.938;1320
588.000;1318
588.063;1308
588.125;1308
588.188;1308
588.250;1315
588.313;1318
588.375;1318
588.438;1323
588.500;1315
588.563;1308
588.625;1313
588.688;1303
588.750;1306
588.813;1301
588.875;1301
588.938;1311
589.000;1311
589.063;1303
589.125;1308
589.188;1315
589.250;1301
589.313;1311
589.375;1308
589.438;1313
589.500;1311
589.563;1298
589.625;1311
589.688;1308
589.750;1306
589.813;1308
589.875;1303
589.938;1306
590.000;1320
590.063;1306
590.125;1318
590.188;1306
590.250;1315
590.313;1311
590.375;1315
590.438;1308
590.500;1313
590.563;1308
590.625;1311
590.688;1313
590.750;1315
590.813;1318
590.875;1315
590.938;1308
591.000;1308
591.063;1306
591.125;1308
591.188;1311
591.250;1308
591.313;1313
591.375;1315
591.438;1315
591.500;1323
591.563;1303
591.625;1318
591.688;1323
591.750;1315
591.813;1311
591.875;1320
591.938;1315
592.000;1308
592.063;1325
592.125;1308
592.188;1318
592.250;1325
592.313;1315
592.375;1313
592.438;1318
592.500;1315
592.563;1313
592.625;1308
592.688;1323
592.750;1315
592.813;1311
592.875;1320
592.938;1318
593.000;1303
593.063;1315
593.125;1325
593.188;1308
593.250;1325
593.313;1311
593.375;1323
593.438;1323
593.500;1323
593.563;1313
593.625;1315
593.688;1318
593.750;1323
593.813;1323
593.875;1323
593.938;1330
594.000;1347
594.063;1352
594.125;1335
594.188;1337
594.250;1325
594.313;1320
594.375;1333
594.438;1313
594.500;1323
594.563;1323
594.625;1323
594.688;1318
594.750;1315
594.813;1313
594.875;1315
594.938;1318
595.000;1311
595.063;1323
595.125;1318
595.188;1313
595.250;1311
595.313;1315
595.375;1320
595.438;1318
595.500;1323
595.563;1315
595.625;1315
595.688;1323
595.750;1318
595.813;1318
595.875;1320
595.938;1325
596.000;1323
596.063;1323
596.125;1323
596.188;1315
596.250;1323
596.313;1311
596.375;1325
596.438;1320
596.500;1313
596.563;1325
596.625;1318
596.688;1323
596.750;1318
596.813;1320
596.875;1323
596.938;1328
597.000;1318
597.063;1325
597.125;1315
597.188;1323
597.250;1320
597.313;1308
597.375;1323
597.438;1315
597.500;1325
597.563;1325
597.625;1318
597.688;1323
597.750;1318
597.813;1318
597.875;1320
597.938;1325
598.000;1320
598.063;1325
598.125;1308
598.188;1323
598.250;1318
598.313;1328
598.375;1318
598.438;1315
598.500;1315
598.563;1320
598.625;1318
598.688;1325
598.750;1323
598.813;1313
598.875;1320
598.938;1325
599.000;1328
599.063;1323
599.125;1323
599.188;1320
599.250;1328
599.313;1313
599.375;1315
599.438;1335
599.500;1323
599.563;1311
599.625;1311
599.688;1313
599.750;1323
599.813;1328
599.875;1320
599.938;1323
600.000;1347
600.063;1357
600.125;1394
600.188;1381
600.250;1357
600.313;1357
600.375;1325
600.438;1328
600.500;1330
600.563;1318
600.625;1320
600.688;1320
600.750;1318
600.813;1325
600.875;1323
600.938;1308
601.000;1318
601.063;1323
601.125;1320
601.188;1323
601.250;1323
601.313;1323
601.375;1311
601.438;1320
601.500;1320
601.563;1325
601.625;1318
601.688;1315
601.750;1313
601.813;1323
601.875;1318
601.938;1318
602.000;1325
602.063;1323
602.125;1313
602.188;1323
602.250;1320
602.313;1320
602.375;1318
602.438;1325
602.500;1320
602.563;1320
602.625;1315
602.688;1325
602.750;1320
602.813;1318
602.875;1320
602.938;1325
603.000;1323
603.063;1320
603.125;1325
603.188;1318
603.250;1320
603.313;1320
603.375;1318
603.438;1328
603.500;1325
603.563;1318
603.625;1318
603.688;1325
603.750;1330
603.813;1318
603.875;1311
603.938;1315
604.000;1318
604.063;1325
604.125;1320
604.188;1308
604.250;1318
604.313;1320
604.375;1311
604.438;1318
604.500;1315
604.563;1325
604.625;1318
604.688;1330
604.750;1320
604.813;1315
604.875;1318
604.938;1313
605.000;1330
605.063;1328
605.125;1320
605.188;1320
605.250;1323
605.313;1323
605.375;1318
605.438;1308
605.500;1320
605.563;1318
605.625;1318
605.688;1320
605.750;1311
605.813;1320
605.875;1315
605.938;1318
606.000;1315
606.063;1306
606.125;1318
606.188;1308
606.250;1330
606.313;1315
606.375;1318
606.438;1320
606.500;1306
606.563;1313
606.625;1323
606.688;1318
606.750;1311
606.813;1323
606.875;1313
606.938;1320
607.000;1306
607.063;1315
607.125;1315
607.188;1315
607.250;1313
607.313;1323
607.375;1313
607.438;1311
607.500;1320
607.563;1315
607.625;1313
607.688;1311
607.750;1311
607.813;1315
607.875;1320
607.938;1318
608.000;1313
608.063;1311
608.125;1318
608.188;1315
608.250;1318
608.313;1315
608.375;1318
608.438;1323
608.500;1308
608.563;1325
608.625;1306
608.688;1303
608.750;1320
608.813;1311
608.875;1311
608.938;1318
609.000;1315
609.063;1308
609.125;1313
609.188;1306
609.250;1318
609.313;1306
609.375;1306
609.438;1313
609.500;1311
609.563;1318
609.625;1318
609.688;1313
609.750;1320
609.813;1320
609.875;1315
609.938;1303
610.000;1311
610.063;1311
610.125;1311
610.188;1318
610.250;1308
610.313;1315
610.375;1313
610.438;1308
610.500;1311
610.563;1311
610.625;1311
610.688;1313
610.750;1315
610.813;1320
610.875;1308
610.938;1306
611.000;1315
611.063;1313
611.125;1308
611.188;1320
611.250;1306
611.313;1308
611.375;1308
611.438;1311
611.500;1315
611.563;1308
611.625;1318
611.688;1315
611.750;1308
611.813;1313
611.875;1311
611.938;1320
612.000;1311
612.063;1311
612.125;1315
612.188;1308
612.250;1313
612.313;1311
612.375;1306
612.438;1311
612.500;1313
612.563;1303
612.625;1303
612.688;1308
612.750;1313
612.813;1308
612.875;1298
612.938;1311
613.000;1311
613.063;1318
613.125;1311
613.188;1306
613.250;1303
613.313;1308
613.375;1308
613.438;1311
613.500;1311
613.563;1315
613.625;1313
613.688;1318
613.750;1311
613.813;1306
613.875;1306
613.938;1313
614.000;1306
614.063;1313
614.125;1313
614.188;1311
614.250;1308
614.313;1315
614.375;1313
614.438;1318
614.500;1313
614.563;1315
614.625;1311
614.688;1313
614.750;1328
614.813;1308
614.875;1315
614.938;1311
615.000;1315
615.063;1318
615.125;1315
615.188;1311
615.250;1318
615.313;1313
615.375;1313
615.438;1311
615.500;1320
615.563;1323
615.625;1315
615.688;1320
615.750;1308
615.813;1313
615.875;1315
615.938;1315
616.000;1308
616.063;1315
616.125;1318
616.188;1318
616.250;1311
616.313;1318
616.375;1311
616.438;1318
616.500;1315
616.563;1301
616.625;1313
616.688;1315
616.750;1320
616.813;1320
616.875;1311
616.938;1323
617.000;1313
617.063;1308
617.125;1311
617.188;1315
617.250;1320
617.313;1315
617.375;1306
617.438;1311
617.500;1318
617.563;1306
617.625;1315
617.688;1320
617.750;1318
617.813;1308
617.875;1318
617.938;1320
618.000;1318
618.063;1311
618.125;1325
618.188;1315
618.250;1318
618.313;1308
618.375;1318
618.438;1313
618.500;1313
618.563;1320
618.625;1320
618.688;1330
618.750;1318
618.813;1318
618.875;1315
618.938;1315
619.000;1311
619.063;1315
619.125;1325
619.188;1318
619.250;1325
619.313;1311
619.375;1323
619.438;1318
619.500;1315
619.563;1320
619.625;1335
619.688;1320
619.750;1318
619.813;1315
619.875;1323
619.938;1318
620.000;1318
620.063;1323
620.125;1325
620.188;1323
620.250;1311
620.313;1315
620.375;1325
620.438;1325
620.500;1318
620.563;1315
620.625;1323
620.688;1315
620.750;1320
620.813;1323
620.875;1315
620.938;1315
621.000;1306
621.063;1320
621.125;1323
621.188;1313
621.250;1323
621.313;1320
621.375;1315
621.438;1323
621.500;1318
621.563;1323
621.625;1315
621.688;1320
621.750;1318
621.813;1333
621.875;1311
621.938;1320
622.000;1330
622.063;1318
622.125;1313
622.188;1311
622.250;1313
622.313;1325
622.375;1318
622.438;1323
622.500;1328
622.563;1315
622.625;1315
622.688;1315
622.750;1311
622.813;1313
622.875;1313
622.938;1313
623.000;1318
623.063;1325
623.125;1325
623.188;1315
623.250;1315
623.313;1318
623.375;1325
623.438;1328
623.500;1313
623.563;1318
623.625;1313
623.688;1318
623.750;1315
623.813;1313
623.875;1318
623.938;1320
624.000;1325
624.063;1306
624.125;1325
624.188;1320
624.250;1308
624.313;1328
624.375;1318
624.438;1328
624.500;1320
624.563;1323
624.625;1330
624.688;1328
624.750;1325
624.813;1325
624.875;1318
624.938;1328
625.000;1328
625.063;1328
625.125;1328
625.188;1315
625.250;1328
625.313;1315
625.375;1318
625.438;1328
625.500;1320
625.563;1337
625.625;1318
625.688;1313
625.750;1323
625.813;1318
625.875;1325
625.938;1308
626.000;1315
626.063;1308
626.125;1320
626.188;1313
626.250;1320
626.313;1328
626.375;1318
626.438;1313
626.500;1320
626.563;1328
626.625;1318
626.688;1315
626.750;1308
626.813;1320
626.875;1325
626.938;1325
627.000;1328
627.063;1325
627.125;1333
627.188;1328
627.250;1325
627.313;1323
627.375;1333
627.438;1325
627.500;1333
627.563;1330
627.625;1323
627.688;1330
627.750;1315
627.813;1311
627.875;1320
627.938;1328
628.000;1323
628.063;1328
628.125;1325
628.188;1320
628.250;1330
628.313;1320
628.375;1323
628.438;1323
628.500;1315
628.563;1315
628.625;1318
628.688;1328
628.750;1323
628.813;1328
628.875;1318
628.938;1320
629.000;1323
629.063;1318
629.125;1328
629.188;1325
629.250;1325
629.313;1315
629.375;1323
629.438;1323
629.500;1328
629.563;1323
629.625;1325
629.688;1330
629.750;1328
629.813;1325
629.875;1318
629.938;1330
630.000;1315
630.063;1318
630.125;1320
630.188;1328
630.250;1328
630.313;1325
630.375;1318
630.438;1335
630.500;1328
630.563;1328
630.625;1330
630.688;1330
630.750;1330
630.813;1323
630.875;1318
630.938;1323
631.000;1320
631.063;1330
631.125;1318
631.188;1313
631.250;1325
631.313;1325
631.375;1330
631.438;1323
631.500;1330
631.563;1323
631.625;1328
631.688;1325
631.750;1325
631.813;1333
631.875;1328
631.938;1330
632.000;1335
632.063;1340
632.125;1330
632.188;1328
632.250;1333
632.313;1315
632.375;1323
632.438;1318
632.500;1325
632.563;1318
632.625;1325
632.688;1337
632.750;1320
632.813;1313
632.875;1320
632.938;1328
633.000;1328
633.063;1323
633.125;1323
633.188;1320
633.250;1318
633.313;1320
633.375;1318
633.438;1320
633.500;1315
633.563;1325
633.625;1330
633.688;1330
633.750;1323
633.813;1325
633.875;1323
633.938;1320
634.000;1313
634.063;1323
634.125;1325
634.188;1315
634.250;1320
634.313;1323
634.375;1325
634.438;1323
634.500;1320
634.563;1313
634.625;1323
634.688;1313
634.750;1328
634.813;1318
634.875;1330
634.938;1315
635.000;1320
635.063;1313
635.125;1318
635.188;1328
635.250;1320
635.313;1330
635.375;1325
635.438;1325
635.500;1325
635.563;1325
635.625;1318
635.688;1320
635.750;1328
635.813;1333
635.875;1320
635.938;1328
636.000;1328
636.063;1325
636.125;1318
636.188;1315
636.250;1320
636.313;1318
636.375;1325
636.438;1315
636.500;1318
636.563;1323
636.625;1328
636.688;1318
636.750;1323
636.813;1328
636.875;1320
636.938;1330
637.000;1330
637.063;1323
637.125;1333
637.188;1325
637.250;1323
637.313;1315
637.375;1311
637.438;1320
637.500;1325
637.563;1318
637.625;1315
637.688;1325
637.750;1330
637.813;1313
637.875;1325
637.938;1318
638.000;1311
638.063;1311
638.125;1315
638.188;1320
638.250;1318
638.313;1308
638.375;1313
638.438;1325
638.500;1320
638.563;1320
638.625;1315
638.688;1313
638.750;1315
638.813;1318
638.875;1306
638.938;1320
639.000;1311
639.063;1320
639.125;1311
639.188;1320
639.250;1311
639.313;1320
639.375;1318
639.438;1313
639.500;1318
639.563;1303
639.625;1315
639.688;1311
639.750;1318
639.813;1318
639.875;1306
639.938;1318
640.000;1313
640.063;1318
640.125;1315
640.188;1311
640.250;1313
640.313;1308
640.375;1320
640.438;1313
640.500;1323
640.563;1320
640.625;1313
640.688;1308
640.750;1313
640.813;1315
640.875;1313
640.938;1315
641.000;1318
641.063;1318
641.125;1318
641.188;1318
641.250;1313
641.313;1318
641.375;1318
641.438;1320
641.500;1323
641.563;1306
641.625;1311
641.688;1313
641.750;1318
641.813;1315
641.875;1315
641.938;1315
642.000;1315
642.063;1323
642.125;1311
642.188;1308
642.250;1311
642.313;1318
642.375;1311
642.438;1318
642.500;1306
642.563;1313
642.625;1320
642.688;1315
642.750;1306
642.813;1323
642.875;1315
642.938;1308
643.000;1320
643.063;1315
643.125;1315
643.188;1313
643.250;1301
643.313;1308
643.375;1311
643.438;1325
643.500;1311
643.563;1325
643.625;1323
643.688;1315
643.750;1313
643.813;1311
643.875;1318
643.938;1308
644.000;1311
644.063;1320
644.125;1313
644.188;1308
644.250;1308
644.313;1318
644.375;1311
644.438;1318
644.500;1320
644.563;1315
644.625;1318
644.688;1311
644.750;1318
644.813;1313
644.875;1315
644.938;1313
645.000;1320
645.063;1315
645.125;1306
645.188;1318
645.250;1315
645.313;1318
645.375;1313
645.438;1323
645.500;1315
645.563;1311
645.625;1318
645.688;1308
645.750;1313
645.813;1315
645.875;1315
645.938;1313
646.000;1303
646.063;1306
646.125;1315
646.188;1308
646.250;1311
646.313;1315
646.375;1315
646.438;1313
646.500;1320
646.563;1325
646.625;1325
646.688;1320
646.750;1315
646.813;1315
646.875;1320
646.938;1315
647.000;1311
647.063;1325
647.125;1311
647.188;1308
647.250;1315
647.313;1318
647.375;1325
647.438;1323
647.500;1323
647.563;1318
647.625;1315
647.688;1318
647.750;1323
647.813;1315
647.875;1318
647.938;1323
648.000;1320
648.063;1318
648.125;1325
648.188;1311
648.250;1318
648.313;1323
648.375;1320
648.438;1320
648.500;1315
648.563;1333
648.625;1313
648.688;1320
648.750;1320
648.813;1313
648.875;1311
648.938;1320
649.000;1323
649.063;1315
649.125;1325
649.188;1318
649.250;1313
649.313;1315
649.375;1315
649.438;1323
649.500;1323
649.563;1315
649.625;1320
649.688;1323
649.750;1308
649.813;1328
649.875;1320
649.938;1313
650.000;1323
650.063;1315
650.125;1325
650.188;1325
650.250;1325
650.313;1318
650.375;1320
650.438;1318
650.500;1320
650.563;1325
650.625;1315
650.688;1330
650.750;1318
650.813;1323
650.875;1323
650.938;1320
651.000;1315
651.063;1320
651.125;1315
651.188;1318
651.250;1315
651.313;1328
651.375;1306
651.438;1318
651.500;1318
651.563;1315
651.625;1320
651.688;1315
651.750;1325
651.813;1320
651.875;1318
651.938;1320
652.000;1325
652.063;1325
652.125;1330
652.188;1315
652.250;1323
652.313;1325
652.375;1325
652.438;1328
652.500;1313
652.563;1323
652.625;1320
652.688;1315
652.750;1315
652.813;1315
652.875;1323
652.938;1323
653.000;1311
653.063;1323
653.125;1323
653.188;1323
653.250;1320
653.313;1328
653.375;1315
653.438;1313
653.500;1318
653.563;1325
653.625;1313
653.688;1323
653.750;1318
653.813;1318
653.875;1323
653.938;1320
654.000;1325
654.063;1320
654.125;1333
654.188;1325
654.250;1318
654.313;1325
654.375;1320
654.438;1320
654.500;1328
654.563;1318
654.625;1323
654.688;1320
654.750;1323
654.813;1328
654.875;1325
654.938;1315
655.000;1323
655.063;1328
655.125;1325
655.188;1320
655.250;1320
655.313;1323
655.375;1318
655.438;1323
655.500;1323
655.563;1323
655.625;1323
655.688;1318
655.750;1323
655.813;1320
655.875;1325
655.938;1325
656.000;1318
656.063;1323
656.125;1318
656.188;1320
656.250;1330
656.313;1320
656.375;1315
656.438;1320
656.500;1315
656.563;1315
656.625;1325
656.688;1325
656.750;1318
656.813;1328
656.875;1318
656.938;1323
657.000;1328
657.063;1318
657.125;1325
657.188;1320
657.250;1323
657.313;1340
657.375;1335
657.438;1323
657.500;1323
657.563;1325
657.625;1325
657.688;1325
657.750;1333
657.813;1325
657.875;1323
657.938;1320
658.000;1323
658.063;1315
658.125;1325
658.188;1315
658.250;1320
658.313;1318
658.375;1323
658.438;1323
658.500;1328
658.563;1318
658.625;1325
658.688;1335
658.750;1330
658.813;1330
658.875;1325
658.938;1328
659.000;1325
659.063;1323
659.125;1318
659.188;1323
659.250;1325
659.313;1335
659.375;1323
659.438;1330
659.500;1328
659.563;1325
659.625;1323
659.688;1325
659.750;1323
659.813;1328
659.875;1333
659.938;1323
660.000;1318
660.063;1328
660.125;1328
660.188;1333
660.250;1325
660.313;1313
660.375;1325
660.438;1328
660.500;1342
660.563;1330
660.625;1323
660.688;1320
660.750;1323
660.813;1323
660.875;1323
660.938;1318
661.000;1330
661.063;1328
661.125;1325
661.188;1320
661.250;1323
661.313;1323
661.375;1318
661.438;1320
661.500;1308
661.563;1320
661.625;1325
661.688;1328
661.750;1325
661.813;1318
661.875;1311
661.938;1315
662.000;1330
662.063;1323
662.125;1311
662.188;1335
662.250;1328
662.313;1320
662.375;1318
662.438;1320
662.500;1308
662.563;1318
662.625;1323
662.688;1330
662.750;1328
662.813;1323
662.875;1323
662.938;1323
663.000;1330
663.063;1313
663.125;1320
663.188;1328
663.250;1318
663.313;1328
663.375;1320
663.438;1318
663.500;1323
663.563;1318
663.625;1323
663.688;1323
663.750;1320
663.813;1318
663.875;1328
663.938;1318
664.000;1328
664.063;1315
664.125;1315
664.188;1315
664.250;1320
664.313;1323
664.375;1325
664.438;1328
664.500;1325
664.563;1320
664.625;1311
664.688;1328
664.750;1328
664.813;1320
664.875;1315
664.938;1318
665.000;1323
665.063;1323
665.125;1315
665.188;1325
665.250;1323
665.313;1320
665.375;1318
665.438;1330
665.500;1313
665.563;1323
665.625;1335
665.688;1313
665.750;1333
665.813;1315
665.875;1330
665.938;1318
666.000;1325
666.063;1311
666.125;1318
666.188;1325
666.250;1323
666.313;1328
666.375;1325
666.438;1320
666.500;1320
666.563;1315
666.625;1328
666.688;1320
666.750;1315
666.813;1315
666.875;1325
666.938;1318
667.000;1320
667.063;1318
667.125;1323
667.188;1323
667.250;1325
667.313;1325
667.375;1325
667.438;1320
667.500;1320
667.563;1325
667.625;1325
667.688;1318
667.750;1323
667.813;1320
667.875;1328
667.938;1320
668.000;1315
668.063;1308
668.125;1330
668.188;1320
668.250;1328
668.313;1325
668.375;1320
668.438;1320
668.500;1320
668.563;1328
668.625;1318
668.688;1318
668.750;1323
668.813;1325
668.875;1328
668.938;1318
669.000;1325
669.063;1328
669.125;1318
669.188;1325
669.250;1318
669.313;1325
669.375;1325
669.438;1328
669.500;1320
669.563;1320
669.625;1311
669.688;1323
669.750;1328
669.813;1315
669.875;1325
669.938;1315
670.000;1318
670.063;1323
670.125;1320
670.188;1325
670.250;1318
670.313;1318
670.375;1330
670.438;1323
670.500;1320
670.563;1330
670.625;1320
670.688;1330
670.750;1320
670.813;1337
670.875;1323
670.938;1323
671.000;1330
671.063;1320
671.125;1325
671.188;1325
671.250;1330
671.313;1330
671.375;1323
671.438;1335
671.500;1325
671.563;1328
671.625;1330
671.688;1323
671.750;1330
671.813;1330
671.875;1323
671.938;1323
672.000;1333
672.063;1342
672.125;1323
672.188;1325
672.250;1325
672.313;1325
672.375;1340
672.438;1350
672.500;1364
672.563;1340
672.625;1345
672.688;1333
672.750;1333
672.813;1335
672.875;1333
672.938;1333
673.000;1328
673.063;1320
673.125;1333
673.188;1323
673.250;1333
673.313;1340
673.375;1328
673.438;1325
673.500;1337
673.563;1325
673.625;1328
673.688;1318
673.750;1325
673.813;1323
673.875;1315
673.938;1320
674.000;1330
674.063;1333
674.125;1330
674.188;1333
674.250;1320
674.313;1333
674.375;1335
674.438;1328
674.500;1328
674.563;1323
674.625;1325
674.688;1330
674.750;1335
674.813;1330
674.875;1328
674.938;1323
675.000;1328
675.063;1325
675.125;1330
675.188;1328
675.250;1328
675.313;1330
675.375;1330
675.438;1320
675.500;1333
675.563;1325
675.625;1337
675.688;1325
675.750;1325
675.813;1320
675.875;1333
675.938;1335
676.000;1325
676.063;1323
676.125;1325
676.188;1318
676.250;1323
676.313;1333
676.375;1323
676.438;1333
676.500;1330
676.563;1325
676.625;1337
676.688;1335
676.750;1323
676.813;1335
676.875;1325
676.938;1330
677.000;1337
677.063;1323
677.125;1328
677.188;1333
677.250;1328
677.313;1335
677.375;1330
677.438;1330
677.500;1318
677.563;1342
677.625;1325
677.688;1330
677.750;1330
677.813;1335
677.875;1328
677.938;1333
678.000;1330
678.063;1335
678.125;1333
678.188;1335
678.250;1330
678.313;1335
678.375;1325
678.438;1335
678.500;1337
678.563;1337
678.625;1325
678.688;1333
678.750;1330
678.813;1330
678.875;1330
678.938;1325
679.000;1325
679.063;1320
679.125;1325
679.188;1328
679.250;1335
679.313;1330
679.375;1323
679.438;1330
679.500;1323
679.563;1342
679.625;1323
679.688;1337
679.750;1330
679.813;1328
679.875;1337
679.938;1330
680.000;1328
680.063;1325
680.125;1328
680.188;1333
680.250;1333
680.313;1330
680.375;1333
680.438;1340
680.500;1330
680.563;1333
680.625;1335
680.688;1320
680.750;1345
680.813;1330
680.875;1325
680.938;1333
681.000;1328
681.063;1335
681.125;1333
681.188;1325
681.250;1335
681.313;1333
681.375;1333
681.438;1333
681.500;1333
681.563;1333
681.625;1333
681.688;1328
681.750;1337
681.813;1328
681.875;1328
681.938;1342
682.000;1335
682.063;1333
682.125;1335
682.188;1330
682.250;1337
682.313;1325
682.375;1333
682.438;1335
682.500;1335
682.563;1340
682.625;1328
682.688;1347
682.750;1347
682.813;1347
682.875;1335
682.938;1345
683.000;1340
683.063;1330
683.125;1342
683.188;1350
683.250;1345
683.313;1345
683.375;1354
683.438;1350
683.500;1362
683.563;1357
683.625;1359
683.688;1352
683.750;1359
683.813;1345
683.875;1352
683.938;1352
684.000;1350
684.063;1340
684.125;1345
684.188;1347
684.250;1354
684.313;1362
684.375;1364
684.438;1364
684.500;1369
684.563;1364
684.625;1364
684.688;1347
684.750;1357
684.813;1359
684.875;1354
684.938;1359
685.000;1354
685.063;1362
685.125;1352
685.188;1367
685.250;1367
685.313;1359
685.375;1352
685.438;1347
685.500;1364
685.563;1357
685.625;1354
685.688;1354
685.750;1359
685.813;1352
685.875;1359
685.938;1357
686.000;1359
686.063;1357
686.125;1364
686.188;1359
686.250;1354
686.313;1340
686.375;1359
686.438;1362
686.500;1369
686.563;1364
686.625;1350
686.688;1357
686.750;1357
686.813;1364
686.875;1357
686.938;1362
687.000;1352
687.063;1357
687.125;1347
687.188;1357
687.250;1374
687.313;1367
687.375;1369
687.438;1364
687.500;1364
687.563;1352
687.625;1359
687.688;1364
687.750;1350
687.813;1354
687.875;1352
687.938;1357
688.000;1347
688.063;1357
688.125;1362
688.188;1359
688.250;1350
688.313;1359
688.375;1354
688.438;1359
688.500;1359
688.563;1367
688.625;1354
688.688;1369
688.750;1362
688.813;1352
688.875;1352
688.938;1359
689.000;1354
689.063;1352
689.125;1357
689.188;1362
689.250;1359
689.313;1357
689.375;1362
689.438;1347
689.500;1352
689.563;1367
689.625;1359
689.688;1374
689.750;1359
689.813;1359
689.875;1364
689.938;1362
690.000;1362
690.063;1347
690.125;1362
690.188;1362
690.250;1352
690.313;1354
690.375;1359
690.438;1362
690.500;1357
690.563;1362
690.625;1357
690.688;1354
690.750;1354
690.813;1359
690.875;1369
690.938;1362
691.000;1364
691.063;1362
691.125;1357
691.188;1359
691.250;1367
691.313;1364
691.375;1362
691.438;1359
691.500;1369
691.563;1362
691.625;1362
691.688;1367
691.750;1362
691.813;1345
691.875;1364
691.938;1364
692.000;1362
692.063;1359
692.125;1364
692.188;1367
692.250;1362
692.313;1367
692.375;1357
692.438;1357
692.500;1359
692.563;1362
692.625;1350
692.688;1354
692.750;1364
692.813;1362
692.875;1367
692.938;1374
693.000;1379
693.063;1379
693.125;1389
693.188;1381
693.250;1357
693.313;1367
693.375;1357
693.438;1342
693.500;1345
693.563;1359
693.625;1352
693.688;1350
693.750;1359
693.813;1340
693.875;1347
693.938;1350
694.000;1345
694.063;1364
694.125;1352
694.188;1354
694.250;1350
694.313;1352
694.375;1345
694.438;1354
694.500;1354
694.563;1347
694.625;1350
694.688;1354
694.750;1352
694.813;1364
694.875;1354
694.938;1364
695.000;1347
695.063;1350
695.125;1347
695.188;1354
695.250;1362
695.313;1359
695.375;1354
695.438;1350
695.500;1359
695.563;1362
695.625;1362
695.688;1352
695.750;1362
695.813;1347
695.875;1350
695.938;1362
696.000;1347
696.063;1362
696.125;1364
696.188;1352
696.250;1359
696.313;1350
696.375;1359
696.438;1362
696.500;1367
696.563;1362
696.625;1364
696.688;1352
696.750;1357
696.813;1362
696.875;1359
696.938;1354
697.000;1352
697.063;1354
697.125;1367
697.188;1352
697.250;1362
697.313;1354
697.375;1357
697.438;1352
697.500;1357
697.563;1354
697.625;1362
697.688;1357
697.750;1354
697.813;1354
697.875;1359
697.938;1352
698.000;1364
698.063;1376
698.125;1391
698.188;1379
698.250;1369
698.313;1372
698.375;1352
698.438;1357
698.500;1357
698.563;1347
698.625;1357
698.688;1364
698.750;1364
698.813;1352
698.875;1354
698.938;1357
699.000;1347
699.063;1345
699.125;1359
699.188;1352
699.250;1359
699.313;1354
699.375;1352
699.438;1342
699.500;1362
699.563;1357
699.625;1350
699.688;1350
699.750;1352
699.813;1347
699.875;1357
699.938;1352
700.000;1345
700.063;1352
700.125;1359
700.188;1352
700.250;1357
700.313;1359
700.375;1364
700.438;1364
700.500;1354
700.563;1362
700.625;1350
700.688;1345
700.750;1350
700.813;1337
700.875;1345
700.938;1340
701.000;1347
701.063;1345
701.125;1345
701.188;1337
701.250;1347
701.313;1337
701.375;1342
701.438;1347
701.500;1333
701.563;1337
701.625;1337
701.688;1330
701.750;1352
701.813;1342
701.875;1337
701.938;1342
702.000;1337
702.063;1347
702.125;1342
702.188;1345
702.250;1342
702.313;1342
702.375;1345
702.438;1340
702.500;1342
702.563;1335
702.625;1340
702.688;1345
702.750;1337
702.813;1347
702.875;1335
702.938;1333
703.000;1328
703.063;1345
703.125;1342
703.188;1342
703.250;1345
703.313;1337
703.375;1335
703.438;1345
703.500;1342
703.563;1342
703.625;1328
703.688;1335
703.750;1333
703.813;1330
703.875;1337
703.938;1330
704.000;1335
704.063;1330
704.125;1335
704.188;1320
704.250;1335
704.313;1335
704.375;1335
704.438;1333
704.500;1340
704.563;1342
704.625;1337
704.688;1330
704.750;1328
704.813;1330
704.875;1333
704.938;1335
705.000;1337
705.063;1340
705.125;1335
705.188;1333
705.250;1345
705.313;1337
705.375;1330
705.438;1328
705.500;1335
705.563;1328
705.625;1337
705.688;1337
705.750;1335
705.813;1337
705.875;1335
705.938;1330
706.000;1335
706.063;1328
706.125;1342
706.188;1330
706.250;1342
706.313;1335
706.375;1330
706.438;1342
706.500;1335
706.563;1335
706.625;1330
706.688;1337
706.750;1328
706.813;1352
706.875;1345
706.938;1337
707.000;1333
707.063;1335
707.125;1342
707.188;1340
707.250;1340
707.313;1333
707.375;1337
707.438;1345
707.500;1335
707.563;1323
707.625;1335
707.688;1325
707.750;1333
707.813;1323
707.875;1328
707.938;1337
708.000;1345
708.063;1342
708.125;1330
708.188;1333
708.250;1333
708.313;1330
708.375;1347
708.438;1345
708.500;1369
708.563;1352
708.625;1359
708.688;1352
708.750;1345
708.813;1328
708.875;1335
708.938;1330
709.000;1340
709.063;1323
709.125;1333
709.188;1337
709.250;1328
709.313;1337
709.375;1330
709.438;1340
709.500;1350
709.563;1328
709.625;1345
709.688;1347
709.750;1337
709.813;1335
709.875;1337
709.938;1342
710.000;1335
710.063;1340
710.125;1342
710.188;1345
710.250;1342
710.313;1333
710.375;1342
710.438;1333
710.500;1337
710.563;1340
710.625;1337
710.688;1333
710.750;1345
710.813;1333
710.875;1323
710.938;1352
711.000;1337
711.063;1337
711.125;1347
711.188;1345
711.250;1335
711.313;1347
711.375;1345
711.438;1347
711.500;1335
711.563;1340
711.625;1333
711.688;1342
711.750;1337
711.813;1337
711.875;1342
711.938;1330
712.000;1337
712.063;1347
712.125;1342
712.188;1342
712.250;1328
712.313;1333
712.375;1342
712.438;1340
712.500;1337
712.563;1345
712.625;1350
712.688;1337
712.750;1330
712.813;1330
712.875;1342
712.938;1345
713.000;1335
713.063;1335
713.125;1337
713.188;1337
713.250;1342
713.313;1337
713.375;1342
713.438;1335
713.500;1337
713.563;1342
713.625;1337
713.688;1345
713.750;1340
713.813;1330
713.875;1337
713.938;1337
714.000;1335
714.063;1337
714.125;1335
714.188;1340
714.250;1342
714.313;1337
714.375;1330
714.438;1323
714.500;1335
714.563;1325
714.625;1342
714.688;1333
714.750;1333
714.813;1345
714.875;1345
714.938;1333
715.000;1342
715.063;1328
715.125;1335
715.188;1340
715.250;1337
715.313;1342
715.375;1342
715.438;1345
715.500;1342
715.563;1340
715.625;1330
715.688;1345
715.750;1335
715.813;1330
715.875;1337
715.938;1340
716.000;1337
716.063;1335
716.125;1337
716.188;1337
716.250;1325
716.313;1340
716.375;1337
716.438;1337
716.500;1335
716.563;1335
716.625;1335
716.688;1340
716.750;1335
716.813;1335
716.875;1337
716.938;1330
717.000;1340
717.063;1337
717.125;1337
717.188;1345
717.250;1342
717.313;1342
717.375;1340
717.438;1333
717.500;1323
717.563;1333
717.625;1335
717.688;1333
717.750;1333
717.813;1330
717.875;1337
717.938;1337
718.000;1337
718.063;1335
718.125;1325
718.188;1333
718.250;1330
718.313;1333
718.375;1335
718.438;1337
718.500;1347
718.563;1340
718.625;1345
718.688;1340
718.750;1340
718.813;1345
718.875;1330
718.938;1342
719.000;1340
719.063;1335
719.125;1340
719.188;1340
719.250;1350
719.313;1337
719.375;1345
719.438;1340
719.500;1347
719.563;1340
719.625;1330
719.688;1335
719.750;1337
719.813;1335
719.875;1340
719.938;1333
720.000;1347
720.063;1364
720.125;1396
720.188;1386
720.250;1374
720.313;1372
720.375;1350
720.438;1345
720.500;1350
720.563;1345
720.625;1340
720.688;1335
720.750;1347
720.813;1330
720.875;1335
720.938;1345
721.000;1337
721.063;1345
721.125;1347
721.188;1342
721.250;1333
721.313;1337
721.375;1335
721.438;1337
721.500;1337
721.563;1333
721.625;1330
721.688;1335
721.750;1325
721.813;1328
721.875;1337
721.938;1333
722.000;1323
722.063;1340
722.125;1337
722.188;1342
722.250;1340
722.313;1337
722.375;1345
722.438;1345
722.500;1335
722.563;1335
722.625;1335
722.688;1330
722.750;1335
722.813;1337
722.875;1340
722.938;1337
723.000;1337
723.063;1340
723.125;1328
723.188;1333
723.250;1342
723.313;1337
723.375;1337
723.438;1345
723.500;1333
723.563;1345
723.625;1333
723.688;1340
723.750;1335
723.813;1337
723.875;1330
723.938;1335
724.000;1320
724.063;1330
724.125;1335
724.188;1330
724.250;1337
724.313;1347
724.375;1340
724.438;1345
724.500;1340
724.563;1337
724.625;1335
724.688;1340
724.750;1350
724.813;1345
724.875;1340
724.938;1330
725.000;1340
725.063;1337
725.125;1333
725.188;1335
725.250;1342
725.313;1330
725.375;1335
725.438;1330
725.500;1333
725.563;1333
725.625;1333
725.688;1347
725.750;1325
725.813;1335
725.875;1330
725.938;1342
726.000;1333
726.063;1337
726.125;1337
726.188;1340
726.250;1340
726.313;1325
726.375;1330
726.438;1325
726.500;1325
726.563;1325
726.625;1335
726.688;1337
726.750;1340
726.813;1337
726.875;1335
726.938;1337
727.000;1325
727.063;1325
727.125;1335
727.188;1328
727.250;1333
727.313;1345
727.375;1328
727.438;1340
727.500;1345
727.563;1337
727.625;1328
727.688;1320
727.750;1335
727.813;1335
727.875;1333
727.938;1330
728.000;1335
728.063;1333
728.125;1328
728.188;1328
728.250;1333
728.313;1330
728.375;1328
728.438;1330
728.500;1337
728.563;1335
728.625;1325
728.688;1330
728.750;1328
728.813;1330
728.875;1335
728.938;1333
729.000;1330
729.063;1350
729.125;1333
729.188;1328
729.250;1340
729.313;1328
729.375;1335
729.438;1330
729.500;1330
729.563;1333
729.625;1325
729.688;1330
729.750;1337
729.813;1325
729.875;1335
729.938;1335
730.000;1335
730.063;1335
730.125;1330
730.188;1330
730.250;1328
730.313;1330
730.375;1333
730.438;1335
730.500;1330
730.563;1328
730.625;1325
730.688;1333
730.750;1328
730.813;1337
730.875;1333
730.938;1328
731.000;1335
731.063;1340
731.125;1333
731.188;1340
731.250;1333
731.313;1335
731.375;1325
731.438;1335
731.500;1323
731.563;1335
731.625;1328
731.688;1337
731.750;1333
731.813;1333
731.875;1325
731.938;1328
732.000;1333
732.063;1333
732.125;1318
732.188;1335
732.250;1335
732.313;1335
732.375;1337
732.438;1342
732.500;1345
732.563;1350
732.625;1340
732.688;1335
732.750;1342
732.813;1323
732.875;1328
732.938;1330
733.000;1333
733.063;1337
733.125;1337
733.188;1333
733.250;1328
733.313;1330
733.375;1325
733.438;1328
733.500;1340
733.563;1323
733.625;1325
733.688;1335
733.750;1335
733.813;1335
733.875;1333
733.938;1328
734.000;1325
734.063;1337
734.125;1335
734.188;1342
734.250;1359
734.313;1359
734.375;1367
734.438;1372
734.500;1367
734.563;1367
734.625;1364
734.688;1374
734.750;1379
734.813;1362
734.875;1369
734.938;1357
735.000;1369
735.063;1384
735.125;1398
735.188;1396
735.250;1384
735.313;1376
735.375;1372
735.438;1374
735.500;1376
735.563;1384
735.625;1381
735.688;1398
735.750;1401
735.813;1418
735.875;1394
735.938;1376
736.000;1376
736.063;1364
736.125;1376
736.188;1372
736.250;1381
736.313;1372
736.375;1364
736.438;1367
736.500;1357
736.563;1376
736.625;1374
736.688;1386
736.750;1389
736.813;1406
736.875;1408
736.938;1408
737.000;1396
737.063;1396
737.125;1386
737.188;1413
737.250;1394
737.313;1391
737.375;1379
737.438;1376
737.500;1367
737.563;1364
737.625;1386
737.688;1374
737.750;1379
737.813;1379
737.875;1374
737.938;1357
738.000;1362
738.063;1357
738.125;1352
738.188;1362
738.250;1364
738.313;1367
738.375;1362
738.438;1369
738.500;1372
738.563;1367
738.625;1364
738.688;1362
738.750;1374
738.813;1374
738.875;1394
738.938;1389
739.000;1372
739.063;1376
739.125;1374
739.188;1369
739.250;1362
739.313;1369
739.375;1369
739.438;1359
739.500;1367
739.563;1372
739.625;1379
739.688;1386
739.750;1379
739.813;1396
739.875;1403
739.938;1403
740.000;1394
740.063;1389
740.125;1372
740.188;1362
740.250;1347
740.313;1350
740.375;1359
740.438;1362
740.500;1379
740.563;1381
740.625;1391
740.688;1411
740.750;1423
740.813;1403
740.875;1391
740.938;1381
741.000;1367
741.063;1367
741.125;1362
741.188;1372
741.250;1369
741.313;1369
741.375;1369
741.438;1374
741.500;1381
741.563;1384
741.625;1379
741.688;1384
741.750;1379
741.813;1396
741.875;1367
741.938;1369
742.000;1345
742.063;1352
742.125;1357
742.188;1372
742.250;1376
742.313;1401
742.375;1408
742.438;1435
742.500;1469
742.563;1567
742.625;1440
742.688;1430
742.750;1401
742.813;1386
742.875;1374
742.938;1372
743.000;1347
743.063;1350
743.125;1345
743.188;1364
743.250;1357
743.313;1357
743.375;1362
743.438;1347
743.500;1352
743.563;1350
743.625;1354
743.688;1345
743.750;1345
743.813;1350
743.875;1342
743.938;1345
744.000;1350
744.063;1347
744.125;1347
744.188;1345
744.250;1340
744.313;1340
744.375;1354
744.438;1354
744.500;1350
744.563;1369
744.625;1350
744.688;1357
744.750;1345
744.813;1350
744.875;1342
744.938;1347
745.000;1354
745.063;1345
745.125;1337
745.188;1347
745.250;1337
745.313;1345
745.375;1350
745.438;1342
745.500;1345
745.563;1342
745.625;1350
745.688;1337
745.750;1342
745.813;1345
745.875;1350
745.938;1335
746.000;1333
746.063;1335
746.125;1342
746.188;1342
746.250;1337
746.313;1352
746.375;1347
746.438;1350
746.500;1337
746.563;1345
746.625;1337
746.688;1345
746.750;1345
746.813;1354
746.875;1340
746.938;1347
747.000;1340
747.063;1350
747.125;1359
747.188;1352
747.250;1342
747.313;1352
747.375;1352
747.438;1350
747.500;1350
747.563;1340
747.625;1352
747.688;1347
747.750;1347
747.813;1350
747.875;1350
747.938;1340
748.000;1347
748.063;1347
748.125;1352
748.188;1345
748.250;1345
748.313;1345
748.375;1352
748.438;1345
748.500;1359
748.563;1337
748.625;1342
748.688;1350
748.750;1345
748.813;1347
748.875;1350
748.938;1352
749.000;1347
749.063;1345
749.125;1345
749.188;1345
749.250;1345
749.313;1350
749.375;1335
749.438;1350
749.500;1347
749.563;1354
749.625;1345
749.688;1359
749.750;1350
749.813;1350
749.875;1345
749.938;1357
750.000;1362
750.063;1357
750.125;1350
750.188;1350
750.250;1354
750.313;1354
750.375;1357
750.438;1350
750.500;1342
750.563;1350
750.625;1350
750.688;1347
750.750;1352
750.813;1345
750.875;1347
750.938;1362
751.000;1352
751.063;1350
751.125;1359
751.188;1354
751.250;1369
751.313;1359
751.375;1367
751.438;1367
751.500;1367
751.563;1367
751.625;1364
751.688;1376
751.750;1389
751.813;1416
751.875;1394
751.938;1391
752.000;1394
752.063;1391
752.125;1381
752.188;1379
752.250;1369
752.313;1369
752.375;1362
752.438;1352
752.500;1364
752.563;1379
752.625;1384
752.688;1376
752.750;1372
752.813;1381
752.875;1372
752.938;1389
753.000;1374
753.063;1376
753.125;1376
753.188;1384
753.250;1391
753.313;1364
753.375;1367
753.438;1376
753.500;1381
753.563;1376
753.625;1386
753.688;1379
753.750;1372
753.813;1384
753.875;1376
753.938;1367
754.000;1386
754.063;1381
754.125;1384
754.188;1357
754.250;1376
754.313;1374
754.375;1386
754.438;1386
754.500;1384
754.563;1386
754.625;1384
754.688;1389
754.750;1386
754.813;1381
754.875;1379
754.938;1391
755.000;1394
755.063;1376
755.125;1386
755.188;1386
755.250;1394
755.313;1394
755.375;1386
755.438;1384
755.500;1386
755.563;1384
755.625;1381
755.688;1374
755.750;1389
755.813;1386
755.875;1391
755.938;1381
756.000;1376
756.063;1391
756.125;1394
756.188;1401
756.250;1384
756.313;1384
756.375;1394
756.438;1396
756.500;1394
756.563;1386
756.625;1381
756.688;1391
756.750;1396
756.813;1372
756.875;1381
756.938;1391
757.000;1386
757.063;1391
757.125;1389
757.188;1381
757.250;1391
757.313;1386
757.375;1362
757.438;1376
757.500;1381
757.563;1391
757.625;1389
757.688;1384
757.750;1376
757.813;1381
757.875;1379
757.938;1386
758.000;1381
758.063;1381
758.125;1381
758.188;1386
758.250;1367
758.313;1364
758.375;1381
758.438;1389
758.500;1389
758.563;1384
758.625;1376
758.688;1379
758.750;1389
758.813;1391
758.875;1367
758.938;1384
759.000;1384
759.063;1389
759.125;1367
759.188;1372
759.250;1381
759.313;1389
759.375;1391
759.438;1376
759.500;1381
759.563;1372
759.625;1391
759.688;1384
759.750;1372
759.813;1372
759.875;1372
759.938;1384
760.000;1381
760.063;1384
760.125;1394
760.188;1389
760.250;1396
760.313;1379
760.375;1381
760.438;1398
760.500;1389
760.563;1362
760.625;1374
760.688;1379
760.750;1381
760.813;1381
760.875;1379
760.938;1372
761.000;1376
761.063;1381
761.125;1384
761.188;1372
761.250;1381
761.313;1384
761.375;1376
761.438;1359
761.500;1367
761.563;1384
761.625;1376
761.688;1386
761.750;1369
761.813;1374
761.875;1386
761.938;1389
762.000;1381
762.063;1376
762.125;1376
762.188;1376
762.250;1374
762.313;1369
762.375;1372
762.438;1376
762.500;1386
762.563;1386
762.625;1364
762.688;1372
762.750;1372
762.813;1381
762.875;1379
762.938;1357
763.000;1386
763.063;1391
763.125;1372
763.188;1364
763.250;1374
763.313;1386
763.375;1379
763.438;1381
763.500;1374
763.563;1384
763.625;1384
763.688;1391
763.750;1367
763.813;1372
763.875;1369
763.938;1376
764.000;1389
764.063;1374
764.125;1372
764.188;1374
764.250;1376
764.313;1384
764.375;1374
764.438;1386
764.500;1374
764.563;1372
764.625;1362
764.688;1374
764.750;1381
764.813;1376
764.875;1379
764.938;1372
765.000;1372
765.063;1374
765.125;1372
765.188;1381
765.250;1376
765.313;1376
765.375;1374
765.438;1374
765.500;1362
765.563;1372
765.625;1376
765.688;1367
765.750;1376
765.813;1379
765.875;1381
765.938;1374
766.000;1369
766.063;1379
766.125;1376
766.188;1381
766.250;1369
766.313;1379
766.375;1362
766.438;1362
766.500;1372
766.563;1379
766.625;1372
766.688;1374
766.750;1367
766.813;1376
766.875;1367
766.938;1379
767.000;1364
767.063;1359
767.125;1376
767.188;1374
767.250;1364
767.313;1369
767.375;1374
767.438;1379
767.500;1372
767.563;1362
767.625;1367
767.688;1367
767.750;1379
767.813;1376
767.875;1379
767.938;1357
768.000;1367
768.063;1369
768.125;1364
768.188;1364
768.250;1364
768.313;1367
768.375;1367
768.438;1362
768.500;1367
768.563;1364
768.625;1357
768.688;1357
768.750;1364
768.813;1364
768.875;1367
768.938;1364
769.000;1364
769.063;1357
769.125;1364
769.188;1369
769.250;1374
769.313;1364
769.375;1357
769.438;1359
769.500;1362
769.563;1364
769.625;1362
769.688;1354
769.750;1364
769.813;1362
769.875;1354
769.938;1364
770.000;1350
770.063;1354
770.125;1362
770.188;1359
770.250;1359
770.313;1359
770.375;1359
770.438;1352
770.500;1362
770.563;1367
770.625;1359
770.688;1357
770.750;1357
770.813;1369
770.875;1352
770.938;1345
771.000;1367
771.063;1354
771.125;1350
771.188;1354
771.250;1337
771.313;1350
771.375;1347
771.438;1352
771.500;1350
771.563;1347
771.625;1342
771.688;1352
771.750;1352
771.813;1350
771.875;1347
771.938;1352
772.000;1352
772.063;1352
772.125;1347
772.188;1350
772.250;1354
772.313;1357
772.375;1347
772.438;1354
772.500;1354
772.563;1347
772.625;1352
772.688;1347
772.750;1352
772.813;1347
772.875;1352
772.938;1354
773.000;1347
773.063;1352
773.125;1350
773.188;1352
773.250;1347
773.313;1340
773.375;1357
773.438;1352
773.500;1340
773.563;1347
773.625;1357
773.688;1350
773.750;1335
773.813;1345
773.875;1342
773.938;1347
774.000;1335
774.063;1347
774.125;1350
774.188;1352
774.250;1350
774.313;1345
774.375;1350
774.438;1342
774.500;1350
774.563;1359
774.625;1345
774.688;1350
774.750;1347
774.813;1354
774.875;1354
774.938;1354
775.000;1347
775.063;1354
775.125;1342
775.188;1350
775.250;1357
775.313;1350
775.375;1354
775.438;1347
775.500;1352
775.563;1350
775.625;1352
775.688;1354
775.750;1342
775.813;1347
775.875;1347
775.938;1345
776.000;1340
776.063;1357
776.125;1345
776.188;1354
776.250;1350
776.313;1345
776.375;1354
776.438;1352
776.500;1340
776.563;1352
776.625;1354
776.688;1352
776.750;1354
776.813;1347
776.875;1342
776.938;1347
777.000;1352
777.063;1345
777.125;1345
777.188;1340
777.250;1345
777.313;1345
777.375;1350
777.438;1337
777.500;1350
777.563;1345
777.625;1352
777.688;1342
777.750;1347
777.813;1352
777.875;1340
777.938;1347
778.000;1350
778.063;1347
778.125;1350
778.188;1345
778.250;1352
778.313;1350
778.375;1347
778.438;1345
778.500;1347
778.563;1350
778.625;1340
778.688;1345
778.750;1340
778.813;1340
778.875;1347
778.938;1345
779.000;1347
779.063;1342
779.125;1345
779.188;1345
779.250;1347
779.313;1337
779.375;1347
779.438;1345
779.500;1345
779.563;1354
779.625;1347
779.688;1350
779.750;1354
779.813;1350
779.875;1357
779.938;1333
780.000;1347
780.063;1347
780.125;1345
780.188;1345
780.250;1347
780.313;1350
780.375;1347
780.438;1342
780.500;1350
780.563;1345
780.625;1347
780.688;1347
780.750;1342
780.813;1350
780.875;1335
780.938;1352
781.000;1345
781.063;1352
781.125;1347
781.188;1352
781.250;1347
781.313;1347
781.375;1347
781.438;1345
781.500;1342
781.563;1345
781.625;1335
781.688;1347
781.750;1345
781.813;1345
781.875;1340
781.938;1350
782.000;1345
782.063;1347
782.125;1347
782.188;1335
782.250;1342
782.313;1357
782.375;1340
782.438;1354
782.500;1347
782.563;1347
782.625;1352
782.688;1350
782.750;1342
782.813;1347
782.875;1350
782.938;1345
783.000;1342
783.063;1345
783.125;1347
783.188;1352
783.250;1350
783.313;1345
783.375;1347
783.438;1342
783.500;1350
783.563;1330
783.625;1342
783.688;1354
783.750;1342
783.813;1342
783.875;1342
783.938;1342
784.000;1347
784.063;1352
784.125;1347
784.188;1359
784.250;1350
784.313;1354
784.375;1347
784.438;1357
784.500;1357
784.563;1352
784.625;1359
784.688;1357
784.750;1362
784.813;1357
784.875;1362
784.938;1352
785.000;1345
785.063;1354
785.125;1350
785.188;1352
785.250;1350
785.313;1347
785.375;1352
785.438;1357
785.500;1354
785.563;1345
785.625;1352
785.688;1359
785.750;1359
785.813;1357
785.875;1362
785.938;1357
786.000;1362
786.063;1345
786.125;1352
786.188;1352
786.250;1347
786.313;1350
786.375;1369
786.438;1354
786.500;1362
786.563;1359
786.625;1359
786.688;1357
786.750;1357
786.813;1362
786.875;1364
786.938;1369
787.000;1367
787.063;1357
787.125;1350
787.188;1359
787.250;1367
787.313;1354
787.375;1354
787.438;1367
787.500;1357
787.563;1357
787.625;1352
787.688;1359
787.750;1352
787.813;1354
787.875;1364
787.938;1357
788.000;1352
788.063;1354
788.125;1354
788.188;1354
788.250;1369
788.313;1362
788.375;1396
788.438;1384
788.500;1411
788.563;1428
788.625;1459
788.688;1389
788.750;1379
788.813;1379
788.875;1386
788.938;1420
789.000;1381
789.063;1389
789.125;1406
789.188;1423
789.250;1496
789.313;1552
789.375;1420
789.438;1398
789.500;1408
789.563;1403
789.625;1406
789.688;1435
789.750;1440
789.813;1411
789.875;1445
789.938;1633
790.000;1428
790.063;1608
790.125;1477
790.188;1445
790.250;1520
790.313;1486
790.375;1457
790.438;1501
790.500;1506
790.563;1477
790.625;1569
790.688;1440
790.750;1503
790.813;1464
790.875;1445
790.938;1459
791.000;1645
791.063;1579
791.125;1682
791.188;1518
791.250;1569
791.313;1704
791.375;1601
791.438;1674
791.500;1782
791.563;2060
791.625;1909
791.688;1997
791.750;2070
791.813;2001
791.875;1965
791.938;1945
792.000;1992
792.063;2070
792.125;1889
792.188;1921
792.250;1914
792.313;1894
792.375;2114
792.438;1933
792.500;1938
792.563;2031
792.625;2067
792.688;1945
792.750;1972
792.813;1950
792.875;1928
792.938;1882
793.000;1904
793.063;2043
793.125;1943
793.188;2092
793.250;1962
793.313;1953
793.375;2055
793.438;1987
793.500;1955
793.563;2077
793.625;1948
793.688;1928
793.750;1962
793.813;1904
793.875;1984
793.938;1953
794.000;1936
794.063;1979
794.125;1884
794.188;1950
794.250;1955
794.313;1914
794.375;1918
794.438;1940
794.500;1892
794.563;1882
794.625;1984
794.688;2001
794.750;1945
794.813;1936
794.875;1867
794.938;1918
795.000;1889
795.063;1896
795.125;1960
795.188;1909
795.250;1921
795.313;1928
795.375;1918
795.438;1943
795.500;1862
795.563;1862
795.625;1958
795.688;1914
795.750;1872
795.813;1943
795.875;1926
795.938;1967
796.000;1862
796.063;1972
796.125;1948
796.188;1909
796.250;1877
796.313;1877
796.375;1914
796.438;1882
796.500;1892
796.563;1916
796.625;1958
796.688;1901
796.750;1872
796.813;1909
796.875;1862
796.938;1904
797.000;1899
797.063;1894
797.125;1887
797.188;1870
797.250;1926
797.313;1887
797.375;1909
797.438;1948
797.500;1896
797.563;1865
797.625;1872
797.688;1862
797.750;1860
797.813;1855
797.875;1872
797.938;1867
798.000;1870
798.063;1884
798.125;1843
798.188;1904
798.250;1865
798.313;1872
798.375;1843
798.438;1972
798.500;1853
798.563;1848
798.625;2062
798.688;2053
798.750;1862
798.813;1877
798.875;1875
798.938;1840
799.000;1892
799.063;1811
799.125;1853
799.188;1838
799.250;1804
799.313;1889
799.375;1843
799.438;1865
799.500;1892
799.563;1853
799.625;1879
799.688;1853
799.750;1896
799.813;1872
799.875;1855
799.938;1867
800.000;1870
800.063;1879
800.125;1892
800.188;1875
800.250;1887
800.313;1896
800.375;1896
800.438;1840
800.500;1848
800.563;1782
800.625;1708
800.688;1730
800.750;1589
800.813;1647
800.875;1535
800.938;1503
801.000;1486
801.063;1528
801.125;1538
801.188;1508
801.250;1533
801.313;1550
801.375;1733
801.438;1816
801.500;1931
801.563;2004
801.625;2075
801.688;2082
801.750;2092
801.813;2084
801.875;2065
801.938;2070
802.000;2053
802.063;2043
802.125;2058
802.188;2058
802.250;2084
802.313;2092
802.375;2099
802.438;2087
802.500;2070
802.563;1782
802.625;1765
802.688;2011
802.750;1784
802.813;1757
802.875;2011
802.938;1833
803.000;1999
803.063;2001
803.125;1999
803.188;1818
803.250;1806
803.313;1987
803.375;1911
803.438;1735
803.500;1879
803.563;1921
803.625;1704
803.688;1809
803.750;1718
803.813;1782
803.875;1906
803.938;1691
804.000;1801
804.063;1870
804.125;1877
804.188;1984
804.250;1982
804.313;1994
804.375;1994
804.438;1982
804.500;1955
804.563;1965
804.625;1677
804.688;1669
804.750;1801
804.813;1855
804.875;2023
804.938;2028
805.000;2045
805.063;2055
805.125;2053
805.188;1914
805.250;2023
805.313;2019
805.375;2041
805.438;1799
805.500;1796
805.563;2036
805.625;2038
805.688;1940
805.750;1984
805.813;2021
805.875;1943
805.938;2014
806.000;2019
806.063;2021
806.125;1904
806.188;2011
806.250;2021
806.313;2023
806.375;2019
806.438;1994
806.500;1979
806.563;1889
806.625;1972
806.688;1960
806.750;1975
806.813;1989
806.875;1994
806.938;2006
807.000;2014
807.063;2009
807.125;2009
807.188;1699
807.250;1940
807.313;1723
807.375;1628
807.438;1613
807.500;1667
807.563;1584
807.625;1586
807.688;1630
807.750;1577
807.813;1594
807.875;1611
807.938;1674
808.000;1611
808.063;1613
808.125;1625
808.188;1843
808.250;1845
808.313;1857
808.375;1875
808.438;1877
808.500;1892
808.563;1906
808.625;1909
808.688;1904
808.750;1904
808.813;1889
808.875;1889
808.938;1875
809.000;1879
809.063;1838
809.125;1870
809.188;1867
809.250;1892
809.313;1882
809.375;1887
809.438;1892
809.500;1882
809.563;1879
809.625;1879
809.688;1879
809.750;1875
809.813;1875
809.875;1889
809.938;1889
810.000;1904
810.063;1909
810.125;1914
810.188;1914
810.250;1916
810.313;1911
810.375;1909
810.438;1918
810.500;1921
810.563;1911
810.625;1906
810.688;1916
810.750;1918
810.813;1921
810.875;1911
810.938;1921
811.000;1928
811.063;1931
811.125;1928
811.188;1926
811.250;1926
811.313;1926
811.375;1933
811.438;1997
811.500;2055
811.563;2124
811.625;2138
811.688;2172
811.750;2087
811.813;2170
811.875;2170
811.938;2119
812.000;2089
812.063;2170
812.125;2175
812.188;2167
812.250;2167
812.313;2163
812.375;2165
812.438;2163
812.500;2150
812.563;2153
812.625;2148
812.688;2145
812.750;2138
812.813;2126
812.875;2136
812.938;2124
813.000;2128
813.063;2124
813.125;2126
813.188;2128
813.250;2128
813.313;2143
813.375;2138
813.438;2131
813.500;2136
813.563;2145
813.625;2141
813.688;2148
813.750;2141
813.813;2143
813.875;2131
813.938;2136
814.000;2102
814.063;2133
814.125;2138
814.188;2133
814.250;2138
814.313;2138
814.375;2133
814.438;2133
814.500;2138
814.563;2124
814.625;2126
814.688;2116
814.750;2131
814.813;2133
814.875;2116
814.938;2116
815.000;2116
815.063;2109
815.125;2111
815.188;2104
815.250;2102
815.313;2104
815.375;2092
815.438;2092
815.500;2087
815.563;2099
815.625;2084
815.688;2080
815.750;2080
815.813;2065
815.875;2058
815.938;2062
816.000;2060
816.063;2058
816.125;2053
816.188;2062
816.250;2055
816.313;2060
816.375;2067
816.438;2082
816.500;2075
816.563;2082
816.625;2089
816.688;2087
816.750;2097
816.813;2070
816.875;2060
816.938;2099
817.000;2102
817.063;2109
817.125;2104
817.188;2111
817.250;2114
817.313;2109
817.375;2121
817.438;2109
817.500;2121
817.563;2109
817.625;2111
817.688;2111
817.750;2114
817.813;2111
817.875;2111
817.938;2121
818.000;2111
818.063;2111
818.125;2126
818.188;2121
818.250;2111
818.313;2104
818.375;2106
818.438;2102
818.500;2106
818.563;2111
818.625;2104
818.688;2106
818.750;2116
818.813;2109
818.875;2109
818.938;2114
819.000;2124
819.063;2128
819.125;2131
819.188;2128
819.250;2141
819.313;2126
819.375;2138
819.438;2148
819.500;2145
819.563;2143
819.625;2150
819.688;2158
819.750;2163
819.813;2155
819.875;2158
819.938;2163
820.000;2165
820.063;2165
820.125;2165
820.188;2170
820.250;2158
820.313;2172
820.375;2170
820.438;2160
820.500;2141
820.563;2111
820.625;2077
820.688;2026
820.750;1979
820.813;1945
820.875;1958
820.938;1945
821.000;1943
821.063;1953
821.125;1928
821.188;1945
821.250;1938
821.313;1936
821.375;1928
821.438;1892
821.500;1923
821.563;1911
821.625;1916
821.688;1909
821.750;1899
821.813;1892
821.875;1882
821.938;1877
822.000;1867
822.063;1853
822.125;1848
822.188;1835
822.250;1823
822.313;1821
822.375;1813
822.438;1801
822.500;1774
822.563;1767
822.625;1774
822.688;1755
822.750;1750
822.813;1745
822.875;1743
822.938;1733
823.000;1708
823.063;1699
823.125;1699
823.188;1711
823.250;1733
823.313;1713
823.375;1723
823.438;1718
823.500;1721
823.563;1726
823.625;1723
823.688;1730
823.750;1723
823.813;1740
823.875;1723
823.938;1716
824.000;1711
824.063;1701
824.125;1694
824.188;1665
824.250;1655
824.313;1650
824.375;1650
824.438;1657
824.500;1655
824.563;1613
824.625;1535
824.688;1450
824.750;1379
824.813;1374
824.875;1372
824.938;1372
825.000;1376
825.063;1369
825.125;1374
825.188;1364
825.250;1359
825.313;1367
825.375;1367
825.438;1364
825.500;1376
825.563;1369
825.625;1362
825.688;1359
825.750;1372
825.813;1376
825.875;1364
825.938;1372
826.000;1362
826.063;1357
826.125;1364
826.188;1376
826.250;1374
826.313;1362
826.375;1362
826.438;1367
826.500;1374
826.563;1372
826.625;1372
826.688;1374
826.750;1359
826.813;1372
826.875;1364
826.938;1374
827.000;1364
827.063;1362
827.125;1374
827.188;1362
827.250;1367
827.313;1374
827.375;1369
827.438;1367
827.500;1359
827.563;1359
827.625;1367
827.688;1369
827.750;1372
827.813;1369
827.875;1372
827.938;1369
828.000;1364
828.063;1364
828.125;1369
828.188;1369
828.250;1374
828.313;1369
828.375;1357
828.438;1364
828.500;1376
828.563;1379
828.625;1369
828.688;1376
828.750;1369
828.813;1369
828.875;1367
828.938;1362
829.000;1364
829.063;1367
829.125;1364
829.188;1359
829.250;1367
829.313;1367
829.375;1362
829.438;1354
829.500;1362
829.563;1369
829.625;1369
829.688;1367
829.750;1362
829.813;1367
829.875;1369
829.938;1372
830.000;1374
830.063;1374
830.125;1369
830.188;1372
830.250;1364
830.313;1374
830.375;1364
830.438;1359
830.500;1362
830.563;1367
830.625;1367
830.688;1372
830.750;1369
830.813;1369
830.875;1362
830.938;1364
831.000;1362
831.063;1367
831.125;1357
831.188;1362
831.250;1364
831.313;1379
831.375;1364
831.438;1354
831.500;1367
831.563;1364
831.625;1367
831.688;1367
831.750;1369
831.813;1372
831.875;1374
831.938;1374
832.000;1357
832.063;1367
832.125;1367
832.188;1362
832.250;1359
832.313;1364
832.375;1362
832.438;1367
832.500;1362
832.563;1362
832.625;1369
832.688;1372
832.750;1364
832.813;1364
832.875;1357
832.938;1362
833.000;1357
833.063;1362
833.125;1364
833.188;1376
833.250;1354
833.313;1362
833.375;1367
833.438;1357
833.500;1367
833.563;1364
833.625;1372
833.688;1359
833.750;1367
833.813;1354
833.875;1372
833.938;1362
834.000;1364
834.063;1367
834.125;1354
834.188;1362
834.250;1362
834.313;1364
834.375;1364
834.438;1362
834.500;1367
834.563;1372
834.625;1367
834.688;1369
834.750;1364
834.813;1364
834.875;1362
834.938;1362
835.000;1362
835.063;1359
835.125;1359
835.188;1359
835.250;1367
835.313;1364
835.375;1359
835.438;1359
835.500;1364
835.563;1369
835.625;1357
835.688;1357
835.750;1359
835.813;1372
835.875;1362
835.938;1367
836.000;1357
836.063;1369
836.125;1369
836.188;1364
836.250;1359
836.313;1362
836.375;1364
836.438;1367
836.500;1354
836.563;1357
836.625;1364
836.688;1354
836.750;1359
836.813;1354
836.875;1354
836.938;1359
837.000;1362
837.063;1369
837.125;1364
837.188;1364
837.250;1359
837.313;1364
837.375;1354
837.438;1362
837.500;1354
837.563;1364
837.625;1354
837.688;1357
837.750;1357
837.813;1364
837.875;1362
837.938;1362
838.000;1374
838.063;1357
838.125;1350
838.188;1357
838.250;1364
838.313;1359
838.375;1369
838.438;1357
838.500;1374
838.563;1367
838.625;1357
838.688;1362
838.750;1364
838.813;1362
838.875;1367
838.938;1359
839.000;1364
839.063;1374
839.125;1359
839.188;1357
839.250;1350
839.313;1357
839.375;1359
839.438;1364
839.500;1354
839.563;1350
839.625;1362
839.688;1354
839.750;1357
839.813;1359
839.875;1362
839.938;1354
840.000;1362
840.063;1394
840.125;1430
840.188;1433
840.250;1413
840.313;1401
840.375;1374
840.438;1359
840.500;1354
840.563;1357
840.625;1372
840.688;1359
840.750;1359
840.813;1354
840.875;1350
840.938;1364
841.000;1350
841.063;1364
841.125;1362
841.188;1359
841.250;1364
841.313;1362
841.375;1357
841.438;1362
841.500;1359
841.563;1364
841.625;1354
841.688;1364
841.750;1354
841.813;1354
841.875;1362
841.938;1359
842.000;1372
842.063;1364
842.125;1364
842.188;1364
842.250;1357
842.313;1357
842.375;1362
842.438;1357
842.500;1354
842.563;1364
842.625;1362
842.688;1354
842.750;1362
842.813;1391
842.875;1416
842.938;1362
843.000;1354
843.063;1362
843.125;1357
843.188;1367
843.250;1359
843.313;1357
843.375;1364
843.438;1364
843.500;1357
843.563;1364
843.625;1354
843.688;1357
843.750;1350
843.813;1362
843.875;1362
843.938;1364
844.000;1354
844.063;1359
844.125;1362
844.188;1364
844.250;1362
844.313;1364
844.375;1369
844.438;1367
844.500;1367
844.563;1364
844.625;1359
844.688;1364
844.750;1374
844.813;1357
844.875;1362
844.938;1367
845.000;1367
845.063;1364
845.125;1359
845.188;1364
845.250;1357
845.313;1362
845.375;1359
845.438;1362
845.500;1369
845.563;1364
845.625;1369
845.688;1357
845.750;1359
845.813;1362
845.875;1359
845.938;1372
846.000;1364
846.063;1354
846.125;1364
846.188;1357
846.250;1364
846.313;1364
846.375;1364
846.438;1362
846.500;1359
846.563;1369
846.625;1354
846.688;1362
846.750;1367
846.813;1359
846.875;1354
846.938;1367
847.000;1367
847.063;1367
847.125;1362
847.188;1359
847.250;1372
847.313;1372
847.375;1367
847.438;1364
847.500;1364
847.563;1369
847.625;1362
847.688;1359
847.750;1374
847.813;1367
847.875;1372
847.938;1362
848.000;1359
848.063;1374
848.125;1367
848.188;1369
848.250;1369
848.313;1364
848.375;1362
848.438;1359
848.500;1364
848.563;1364
848.625;1367
848.688;1374
848.750;1364
848.813;1362
848.875;1362
848.938;1362
849.000;1357
849.063;1362
849.125;1372
849.188;1364
849.250;1379
849.313;1367
849.375;1364
849.438;1359
849.500;1367
849.563;1374
849.625;1369
849.688;1357
849.750;1362
849.813;1362
849.875;1372
849.938;1379
850.000;1369
850.063;1367
850.125;1362
850.188;1362
850.250;1364
850.313;1367
850.375;1369
850.438;1359
850.500;1372
850.563;1357
850.625;1372
850.688;1372
850.750;1372
850.813;1372
850.875;1376
850.938;1374
851.000;1374
851.063;1362
851.125;1367
851.188;1362
851.250;1369
851.313;1364
851.375;1367
851.438;1367
851.500;1369
851.563;1376
851.625;1367
851.688;1367
851.750;1367
851.813;1369
851.875;1374
851.938;1362
852.000;1372
852.063;1379
852.125;1364
852.188;1374
852.250;1369
852.313;1367
852.375;1374
852.438;1374
852.500;1372
852.563;1367
852.625;1367
852.688;1376
852.750;1374
852.813;1372
852.875;1376
852.938;1369
853.000;1364
853.063;1367
853.125;1379
853.188;1376
853.250;1372
853.313;1374
853.375;1364
853.438;1374
853.500;1374
853.563;1376
853.625;1381
853.688;1374
853.750;1381
853.813;1376
853.875;1372
853.938;1362
854.000;1376
854.063;1367
854.125;1372
854.188;1374
854.250;1369
854.313;1376
854.375;1379
854.438;1372
854.500;1362
854.563;1367
854.625;1372
854.688;1369
854.750;1369
854.813;1372
854.875;1372
854.938;1372
855.000;1374
855.063;1369
855.125;1369
855.188;1376
855.250;1376
855.313;1376
855.375;1379
855.438;1374
855.500;1372
855.563;1367
855.625;1372
855.688;1369
855.750;1374
855.813;1381
855.875;1374
855.938;1376
856.000;1372
856.063;1379
856.125;1384
856.188;1372
856.250;1374
856.313;1376
856.375;1374
856.438;1379
856.500;1374
856.563;1379
856.625;1376
856.688;1376
856.750;1381
856.813;1372
856.875;1384
856.938;1384
857.000;1379
857.063;1372
857.125;1372
857.188;1369
857.250;1376
857.313;1374
857.375;1376
857.438;1379
857.500;1367
857.563;1376
857.625;1367
857.688;1376
857.750;1381
857.813;1372
857.875;1386
857.938;1372
858.000;1381
858.063;1369
858.125;1372
858.188;1369
858.250;1376
858.313;1376
858.375;1381
858.438;1367
858.500;1376
858.563;1381
858.625;1384
858.688;1369
858.750;1374
858.813;1374
858.875;1379
858.938;1374
859.000;1374
859.063;1374
859.125;1376
859.188;1376
859.250;1381
859.313;1386
859.375;1376
859.438;1376
859.500;1367
859.563;1376
859.625;1376
859.688;1369
859.750;1372
859.813;1367
859.875;1379
859.938;1372
860.000;1376
860.063;1376
860.125;1381
860.188;1364
860.250;1374
860.313;1367
860.375;1379
860.438;1374
860.500;1386
860.563;1379
860.625;1369
860.688;1367
860.750;1381
860.813;1369
860.875;1372
860.938;1372
861.000;1381
861.063;1372
861.125;1374
861.188;1376
861.250;1376
861.313;1364
861.375;1374
861.438;1374
861.500;1374
861.563;1374
861.625;1379
861.688;1379
861.750;1374
861.813;1374
861.875;1369
861.938;1367
862.000;1372
862.063;1372
862.125;1379
862.188;1369
862.250;1386
862.313;1369
862.375;1367
862.438;1369
862.500;1376
862.563;1379
862.625;1379
862.688;1374
862.750;1374
862.813;1376
862.875;1362
862.938;1376
863.000;1374
863.063;1372
863.125;1372
863.188;1374
863.250;1379
863.313;1386
863.375;1398
863.438;1369
863.500;1381
863.563;1376
863.625;1384
863.688;1376
863.750;1381
863.813;1389
863.875;1494
863.938;1765
864.000;1823
864.063;1894
864.125;1838
864.188;1811
864.250;1723
864.313;1530
864.375;1420
864.438;1381
864.500;1384
864.563;1384
864.625;1376
864.688;1374
864.750;1381
864.813;1372
864.875;1367
864.938;1374
865.000;1369
865.063;1376
865.125;1376
865.188;1374
865.250;1381
865.313;1376
865.375;1379
865.438;1374
865.500;1372
865.563;1372
865.625;1374
865.688;1386
865.750;1364
865.813;1372
865.875;1372
865.938;1376
866.000;1369
866.063;1369
866.125;1376
866.188;1386
866.250;1381
866.313;1369
866.375;1374
866.438;1376
866.500;1364
866.563;1372
866.625;1372
866.688;1374
866.750;1374
866.813;1374
866.875;1379
866.938;1374
867.000;1381
867.063;1367
867.125;1372
867.188;1369
867.250;1362
867.313;1372
867.375;1369
867.438;1372
867.500;1357
867.563;1369
867.625;1376
867.688;1367
867.750;1372
867.813;1381
867.875;1389
867.938;1381
868.000;1381
868.063;1384
868.125;1384
868.188;1372
868.250;1384
868.313;1376
868.375;1374
868.438;1376
868.500;1369
868.563;1369
868.625;1369
868.688;1374
868.750;1364
868.813;1367
868.875;1372
868.938;1367
869.000;1376
869.063;1374
869.125;1376
869.188;1379
869.250;1376
869.313;1379
869.375;1369
869.438;1372
869.500;1376
869.563;1369
869.625;1372
869.688;1376
869.750;1372
869.813;1374
869.875;1376
869.938;1376
870.000;1367
